SPECTRUM - MS
20190411_GroEL_IST-20_Iso11960_Width200_HCD250_6k.RAW
FTMS + p NSI Full ms2 11960.0000@hcd250.00 [1000.0000-40000.0000]
Scan #: 1-28
RT: 0.03-0.71
AV: 28
Data points: 8077
Mass	Intensity
989.965273	0.000000
990.024346	0.000000
990.083425	0.000000
990.142508	0.000000
1001.946136	0.000000
1002.006285	0.000000
1002.066440	0.000000
1002.126599	0.000000
1002.186765	8.031005
1002.246935	14.619263
1002.307111	17.716287
1002.367293	15.063883
1002.427480	8.273561
1002.487672	0.301513
1002.547870	0.000000
1002.608073	0.000000
1002.668281	0.000000
1002.728495	0.000000
1030.197129	0.000000
1030.259840	0.000000
1030.322556	0.000000
1030.385278	0.000000
1030.448006	8.402889
1030.510740	13.762471
1030.573479	15.770627
1030.636225	13.757690
1030.698975	9.102407
1030.761732	0.183236
1030.824494	0.000000
1030.887262	0.000000
1030.950036	0.000000
1031.012816	0.000000
1033.339696	0.000000
1033.402694	0.000000
1033.465698	0.000000
1033.528707	0.000000
1033.591722	10.659267
1033.654743	17.945036
1033.717770	19.334840
1033.780803	14.372092
1033.843841	6.906152
1033.906885	0.135965
1033.969935	0.000000
1034.032990	0.000000
1034.096052	0.000000
1034.159119	0.000000
1078.687227	0.000000
1078.754417	0.000000
1078.821614	0.000000
1078.888817	0.000000
1078.956025	9.728538
1079.023241	15.778326
1079.090462	18.678176
1079.157690	17.250759
1079.224924	12.202641
1079.292164	0.439437
1079.359411	0.000000
1079.426664	0.000000
1079.493923	0.000000
1079.561189	0.000000
1097.955498	0.000000
1098.024497	0.000000
1098.093502	0.000000
1098.162513	0.000000
1098.231531	13.283789
1098.300556	19.484523
1098.369587	20.734855
1098.438624	16.301518
1098.507668	8.742399
1098.576719	0.194529
1098.645776	0.000000
1098.714839	0.000000
1098.783909	0.000000
1098.852986	0.000000
1106.770618	0.000000
1106.840449	0.000000
1106.910286	0.000000
1106.980131	0.000000
1107.049982	8.407615
1107.119839	17.034374
1107.189703	22.116330
1107.259574	20.179079
1107.329451	12.873274
1107.399335	0.119794
1107.469226	0.000000
1107.539123	0.000000
1107.609027	0.000000
1107.678938	0.000000
1115.197773	0.000000
1115.268403	0.000000
1115.339040	0.000000
1115.409684	0.000000
1115.480334	10.063658
1115.550991	16.572496
1115.621655	18.778266
1115.692325	15.488005
1115.763003	8.868614
1115.833686	0.079516
1115.904377	0.000000
1115.975074	0.000000
1116.045778	0.000000
1116.116489	0.000000
1118.808486	0.000000
1118.879459	0.000000
1118.950439	0.000000
1119.021426	0.000000
1119.092420	7.821539
1119.163421	14.166750
1119.234428	17.287447
1119.305442	15.377003
1119.376463	9.673046
1119.447490	0.223745
1119.518524	0.000000
1119.589566	0.000000
1119.660613	0.000000
1119.731668	0.000000
1187.384491	0.000000
1187.462089	0.000000
1187.539694	0.000000
1187.617308	0.000000
1187.694928	8.286431
1187.772557	15.182634
1187.850193	17.944399
1187.927836	15.150987
1188.005487	9.070663
1188.083146	0.106078
1188.160813	0.000000
1188.238487	0.000000
1188.316168	0.000000
1188.393858	0.000000
1201.159771	0.000000
1201.238723	0.000000
1201.317683	0.000000
1201.396651	0.000000
1201.475626	12.582877
1201.554610	19.886012
1201.633601	21.644119
1201.712600	17.248494
1201.791606	9.857198
1201.870621	0.359656
1201.949643	0.000000
1202.028673	0.000000
1202.107711	0.000000
1202.186757	12.405771
1202.265811	16.548267
1202.344872	17.600764
1202.423941	15.022733
1202.503018	9.578906
1202.582103	0.242843
1202.661195	0.000000
1202.740295	0.000000
1202.819404	0.000000
1202.898520	0.000000
1229.030676	0.000000
1229.112392	0.000000
1229.194116	0.000000
1229.275849	0.000000
1229.357589	9.485976
1229.439338	16.510899
1229.521095	18.503155
1229.602860	14.461014
1229.684633	7.380277
1229.766414	0.185304
1229.848204	0.000000
1229.930001	0.000000
1230.011807	0.000000
1230.093621	0.000000
1235.429088	0.000000
1235.511443	0.000000
1235.593807	0.000000
1235.676178	0.000000
1235.758558	8.431303
1235.840946	16.192750
1235.923342	20.332019
1236.005747	18.193997
1236.088159	11.387100
1236.170580	0.295883
1236.253010	0.000000
1236.335447	0.000000
1236.417893	0.000000
1236.500347	0.000000
1247.290000	0.000000
1247.373543	0.000000
1247.457096	0.000000
1247.540656	0.000000
1247.624226	8.836208
1247.707803	15.834380
1247.791389	18.531816
1247.874983	14.824396
1247.958586	7.215167
1248.042197	0.186714
1248.125817	0.000000
1248.209444	0.000000
1248.293081	0.000000
1248.376725	0.000000
1334.019643	0.000000
1334.112050	0.000000
1334.204468	0.000000
1334.296894	0.000000
1334.389331	12.016600
1334.481777	20.227598
1334.574232	22.768238
1334.666698	17.971919
1334.759173	8.912038
1334.851657	0.227060
1334.944151	0.000000
1335.036655	0.000000
1335.129168	0.000000
1335.221691	0.000000
1341.070080	0.000000
1341.163221	0.000000
1341.256372	0.000000
1341.349533	0.000000
1341.442703	9.157547
1341.535883	16.220002
1341.629073	18.487190
1341.722272	14.231290
1341.815481	6.177063
1341.908700	0.101074
1342.001929	0.000000
1342.095167	0.000000
1342.188415	0.000000
1342.281673	0.000000
1342.654801	0.000000
1342.748107	0.000000
1342.841423	0.000000
1342.934749	0.000000
1343.028084	11.106307
1343.121429	17.628565
1343.214784	19.026214
1343.308149	14.646443
1343.401524	7.197558
1343.494908	0.125598
1343.588302	0.000000
1343.681705	0.000000
1343.775119	0.000000
1343.868542	0.000000
1354.299380	0.000000
1354.393903	0.000000
1354.488436	0.000000
1354.582978	0.000000
1354.677531	6.480775
1354.772093	14.467741
1354.866665	20.170893
1354.961248	19.901228
1355.055840	13.410205
1355.150442	0.231906
1355.245054	0.000000
1355.339675	9.043100
1355.434307	16.783759
1355.528949	19.746280
1355.623600	15.528832
1355.718262	7.125485
1355.812933	0.124768
1355.907615	0.000000
1356.002306	0.000000
1356.097007	0.000000
1356.191718	0.000000
1361.320887	0.000000
1361.416145	0.000000
1361.511414	0.000000
1361.606693	0.000000
1361.701982	8.230236
1361.797281	15.401633
1361.892590	17.828638
1361.987909	14.351449
1362.083238	7.522396
1362.178576	0.134808
1362.273925	0.000000
1362.369284	0.000000
1362.464653	0.000000
1362.560032	0.000000
1367.725405	0.000000
1367.821337	0.000000
1367.917279	0.000000
1368.013231	0.000000
1368.109193	6.327701
1368.205166	14.919920
1368.301148	19.838218
1368.397141	17.322581
1368.493143	9.174511
1368.589156	0.151565
1368.685179	0.000000
1368.781211	0.000000
1368.877254	0.000000
1368.973308	0.000000
1371.281619	0.000000
1371.377925	0.000000
1371.474241	0.000000
1371.570568	0.000000
1371.666905	8.141419
1371.763252	17.076877
1371.859609	22.793737
1371.955976	22.030619
1372.052353	15.218233
1372.148741	6.744404
1372.245138	0.121171
1372.341546	0.000000
1372.437964	0.000000
1372.534392	0.000000
1372.630831	0.000000
1373.885454	0.000000
1373.982035	0.000000
1374.078626	0.000000
1374.175227	0.000000
1374.271838	8.075425
1374.368460	15.359810
1374.465091	18.016252
1374.561733	14.314341
1374.658385	6.954469
1374.755047	0.119426
1374.851720	0.000000
1374.948402	0.000000
1375.045095	0.000000
1375.141798	0.000000
1378.144660	0.000000
1378.241690	0.000000
1378.338731	0.000000
1378.435781	0.000000
1378.532842	6.734625
1378.629913	15.092895
1378.726995	18.483132
1378.824087	14.237504
1378.921189	5.740856
1379.018301	0.104084
1379.115423	0.000000
1379.212556	0.000000
1379.309699	0.000000
1379.406852	0.000000
1379.989988	0.000000
1380.087213	0.000000
1380.184448	0.000000
1380.281694	0.000000
1380.378950	9.115574
1380.476216	18.226380
1380.573493	21.444808
1380.670780	15.709954
1380.768077	5.306223
1380.865384	0.094457
1380.962702	0.000000
1381.060030	0.000000
1381.157368	0.000000
1381.254717	0.000000
1381.741614	0.000000
1381.839024	0.000000
1381.936445	0.000000
1382.033876	0.000000
1382.131317	12.174978
1382.228768	21.175931
1382.326230	23.375080
1382.423702	17.139787
1382.521185	6.819173
1382.618678	0.123283
1382.716181	0.000000
1382.813694	0.000000
1382.911218	0.000000
1383.008752	0.000000
1383.887023	0.000000
1383.984660	0.000000
1384.082308	0.000000
1384.179966	0.000000
1384.277634	9.611297
1384.375313	17.279772
1384.473002	20.329110
1384.570701	16.836644
1384.668411	9.164798
1384.766131	0.244005
1384.863861	0.000000
1384.961602	0.000000
1385.059353	0.000000
1385.157114	0.000000
1388.389056	0.000000
1388.487170	0.000000
1388.585295	0.000000
1388.683429	0.000000
1388.781575	10.407995
1388.879731	17.063291
1388.977897	20.259337
1389.076073	18.688849
1389.174260	12.931068
1389.272458	0.241406
1389.370665	0.000000
1389.468884	0.000000
1389.567112	0.000000
1389.665351	0.000000
1389.763601	0.000000
1389.861861	0.000000
1389.960131	0.000000
1390.058412	5.775479
1390.156703	15.836319
1390.255004	23.831126
1390.353316	22.927033
1390.451639	13.285823
1390.549972	0.250612
1390.648315	0.000000
1390.746669	0.000000
1390.845033	0.000000
1390.943408	0.000000
1392.814510	0.000000
1392.913093	0.000000
1393.011687	0.000000
1393.110292	0.000000
1393.208907	8.324303
1393.307533	18.279991
1393.406169	22.698774
1393.504815	18.301716
1393.603472	8.915394
1393.702139	0.170430
1393.800817	0.000000
1393.899506	0.000000
1393.998204	0.000000
1394.096914	0.000000
1396.271174	0.000000
1396.370125	0.000000
1396.469087	0.000000
1396.568058	0.000000
1396.667041	8.744503
1396.766034	17.117150
1396.865037	21.718082
1396.964051	18.861110
1397.063076	10.011102
1397.162111	0.183649
1397.261156	10.334065
1397.360213	18.687553
1397.459279	21.249240
1397.558356	15.991012
1397.657444	6.780681
1397.756542	0.122362
1397.855651	0.000000
1397.954771	0.000000
1398.053900	0.000000
1398.153041	0.000000
1412.439436	0.000000
1412.540111	0.000000
1412.640796	0.000000
1412.741492	0.000000
1412.842199	9.734367
1412.942917	17.762373
1413.043645	19.755462
1413.144385	14.707599
1413.245134	6.701307
1413.345895	0.123614
1413.446667	0.000000
1413.547449	0.000000
1413.648242	0.000000
1413.749046	0.000000
1418.296402	0.000000
1418.397703	0.000000
1418.499016	0.000000
1418.600339	0.000000
1418.701673	10.050168
1418.803018	17.792102
1418.904373	20.199219
1419.005740	15.844679
1419.107117	7.797811
1419.208506	0.144610
1419.309905	0.000000
1419.411315	4.499583
1419.512736	20.984486
1419.614168	37.940384
1419.715610	41.815988
1419.817064	29.904558
1419.918528	7.479466
1420.020004	0.139169
1420.121490	0.000000
1420.222987	0.000000
1420.324495	0.000000
1420.426013	0.000000
1423.680371	0.000000
1423.782249	0.000000
1423.884139	0.000000
1423.986040	0.000000
1424.087951	7.853369
1424.189874	14.232421
1424.291807	17.050926
1424.393752	14.292025
1424.495707	7.614209
1424.597674	8.920784
1424.699651	14.791324
1424.801639	17.602780
1424.903638	15.580622
1425.005649	9.881490
1425.107670	0.191525
1425.209702	0.000000
1425.311745	0.000000
1425.413799	0.000000
1425.515864	0.000000
1425.617940	9.491625
1425.720026	16.648100
1425.822124	30.358618
1425.924233	33.602516
1426.026353	27.709588
1426.128484	16.382266
1426.230625	13.828374
1426.332778	16.010434
1426.434942	24.442733
1426.537116	24.322175
1426.639302	16.378393
1426.741498	6.976947
1426.843706	10.708780
1426.945925	18.581820
1427.048154	21.207889
1427.150395	29.257566
1427.252646	33.835625
1427.354909	34.005233
1427.457182	33.241385
1427.559467	22.438180
1427.661762	7.883592
1427.764069	0.143056
1427.866386	0.000000
1427.968715	0.000000
1428.071054	0.000000
1428.173405	0.000000
1428.992605	0.000000
1429.095054	0.000000
1429.197515	0.000000
1429.299986	0.000000
1429.402469	7.884403
1429.504963	15.075340
1429.607467	17.877738
1429.709983	14.512395
1429.812510	7.182923
1429.915048	0.136362
1430.017596	0.000000
1430.120156	6.645981
1430.222727	36.556374
1430.325309	61.036823
1430.427902	66.543942
1430.530506	48.223906
1430.633121	20.324110
1430.735747	0.385814
1430.838384	6.581617
1430.941032	14.701378
1431.043691	19.647067
1431.146362	18.552680
1431.249043	12.983319
1431.351735	0.252923
1431.454439	0.000000
1431.557153	0.000000
1431.659878	0.000000
1431.762615	0.000000
1432.379267	0.000000
1432.482081	0.000000
1432.584906	0.000000
1432.687742	0.000000
1432.790589	9.459747
1432.893447	27.924771
1432.996317	51.762674
1433.099197	61.375453
1433.202089	52.120919
1433.304991	30.656812
1433.407905	9.160849
1433.510830	0.171264
1433.613765	0.000000
1433.716712	0.000000
1433.819670	0.000000
1433.922640	0.000000
1434.025620	8.329541
1434.128611	26.076635
1434.231614	36.988101
1434.334627	38.651409
1434.437652	29.839664
1434.540687	14.960428
1434.643734	16.100062
1434.746792	19.922422
1434.849861	24.379043
1434.952941	21.216602
1435.056032	13.034461
1435.159135	0.245730
1435.262248	0.000000
1435.365373	0.000000
1435.468508	0.000000
1435.571655	0.000000
1435.674813	0.000000
1435.777982	0.000000
1435.881162	0.000000
1435.984354	10.169413
1436.087556	15.072643
1436.190769	17.027797
1436.293994	16.425776
1436.397230	13.863734
1436.500477	9.456029
1436.603735	0.184865
1436.707004	0.000000
1436.810284	12.712458
1436.913576	36.583470
1437.016878	54.100381
1437.120192	55.011820
1437.223517	39.494918
1437.326853	15.164389
1437.430200	0.283014
1437.533558	0.000000
1437.636928	0.000000
1437.740309	11.938406
1437.843700	20.924506
1437.947103	23.902128
1438.050517	18.141822
1438.153943	7.699784
1438.257379	6.933851
1438.360826	14.531391
1438.464285	20.578550
1438.567755	21.973550
1438.671236	17.965971
1438.774728	10.318973
1438.878232	0.199180
1438.981746	0.000000
1439.085272	6.543745
1439.188809	17.651617
1439.292357	26.747525
1439.395916	26.927161
1439.499486	17.514339
1439.603068	5.522793
1439.706661	0.104081
1439.810265	0.000000
1439.913880	0.000000
1440.017506	0.000000
1440.121144	0.000000
1440.224792	0.000000
1440.328452	0.000000
1440.432123	11.389974
1440.535805	20.080490
1440.639499	21.977213
1440.743204	16.332570
1440.846919	7.507909
1440.950646	0.144373
1441.054385	0.000000
1441.158134	0.000000
1441.261895	0.000000
1441.365667	14.325976
1441.469450	19.011003
1441.573244	21.571194
1441.677050	20.218675
1441.780866	14.140005
1441.884694	0.274154
1441.988533	0.000000
1442.092384	0.000000
1442.196245	0.000000
1442.300118	0.000000
1442.404002	0.000000
1442.507897	0.000000
1442.611804	0.000000
1442.715721	0.000000
1442.819650	6.166074
1442.923591	16.444497
1443.027542	23.327466
1443.131505	31.200873
1443.235478	45.074999
1443.339463	52.720668
1443.443460	46.570930
1443.547467	30.284485
1443.651486	11.608730
1443.755516	7.256018
1443.859558	14.983774
1443.963610	25.675257
1444.067674	36.293101
1444.171749	35.476885
1444.275835	22.061055
1444.379933	5.909191
1444.484042	0.109853
1444.588162	5.908782
1444.692293	13.761917
1444.796436	29.646977
1444.900589	39.758559
1445.004755	38.508814
1445.108931	43.433265
1445.213119	46.990457
1445.317317	58.077198
1445.421528	56.642154
1445.525749	37.644028
1445.629982	13.742022
1445.734226	0.258892
1445.838481	0.000000
1445.942748	0.000000
1446.047025	0.000000
1446.151314	0.000000
1446.255615	0.000000
1446.359927	7.579625
1446.464249	22.745695
1446.568584	40.872893
1446.672929	45.232560
1446.777286	38.739895
1446.881654	27.865807
1446.986034	25.164698
1447.090424	36.258039
1447.194826	47.960921
1447.299240	53.915061
1447.403664	60.080669
1447.508100	61.334732
1447.612547	51.041170
1447.717006	33.421978
1447.821476	26.702312
1447.925957	27.234990
1448.030449	21.953263
1448.134953	18.980541
1448.239468	11.602953
1448.343994	0.223212
1448.448532	0.000000
1448.553081	0.000000
1448.657641	10.957648
1448.762213	17.390995
1448.866796	19.957837
1448.971390	16.761018
1449.075996	9.321510
1449.180613	0.169113
1449.285241	6.042523
1449.389881	25.908035
1449.494532	36.004225
1449.599194	36.703612
1449.703868	32.881289
1449.808553	25.144964
1449.913249	25.228166
1450.017957	30.613065
1450.122676	36.165571
1450.227406	41.089116
1450.332148	40.688948
1450.436901	32.961048
1450.541665	25.392204
1450.646441	24.741177
1450.751228	38.552313
1450.856026	39.547733
1450.960836	30.189069
1451.065657	15.017476
1451.170490	6.191447
1451.275333	10.115845
1451.380189	18.212157
1451.485055	20.817306
1451.589933	15.515431
1451.694823	5.840090
1451.799723	0.108054
1451.904635	8.782454
1452.009559	16.580825
1452.114494	20.966331
1452.219440	31.230725
1452.324397	30.031426
1452.429366	20.257857
1452.534347	14.365985
1452.639338	5.689894
1452.744341	0.107575
1452.849356	0.000000
1452.954382	0.000000
1453.059419	0.000000
1453.164468	8.905589
1453.269528	31.370583
1453.374599	54.049583
1453.479682	67.701804
1453.584776	69.357234
1453.689882	56.714268
1453.794999	49.767904
1453.900127	44.740740
1454.005267	27.849237
1454.110418	8.989175
1454.215581	0.165931
1454.320755	0.000000
1454.425940	17.213561
1454.531137	32.906699
1454.636345	43.729311
1454.741565	42.483107
1454.846796	37.134289
1454.952039	29.218519
1455.057293	21.691409
1455.162558	17.380559
1455.267835	21.536421
1455.373123	21.160233
1455.478423	21.958491
1455.583734	15.004420
1455.689056	9.631721
1455.794390	14.407452
1455.899736	28.222323
1456.005092	37.855771
1456.110461	46.068091
1456.215840	65.031859
1456.321231	82.488133
1456.426634	80.346318
1456.532048	59.458321
1456.637473	26.996856
1456.742910	21.771469
1456.848359	34.235405
1456.953818	57.949879
1457.059290	61.027726
1457.164772	46.123859
1457.270267	26.169824
1457.375772	9.283857
1457.481289	0.171663
1457.586818	8.704103
1457.692358	27.274190
1457.797909	42.475872
1457.903472	45.559688
1458.009047	34.529900
1458.114632	17.376963
1458.220230	0.331279
1458.325838	0.000000
1458.431459	0.000000
1458.537091	0.000000
1458.642734	0.000000
1458.748388	0.000000
1458.854055	0.000000
1458.959732	0.000000
1459.065421	15.920822
1459.171122	32.839180
1459.276834	42.039461
1459.382558	39.342565
1459.488293	27.763981
1459.594039	8.665547
1459.699797	0.161810
1459.805567	0.000000
1459.911348	16.082185
1460.017141	41.016701
1460.122945	59.045452
1460.228760	62.355828
1460.334587	61.028769
1460.440426	50.206563
1460.546276	46.476559
1460.652138	58.590985
1460.758011	60.833993
1460.863895	53.306414
1460.969791	33.986987
1461.075699	25.076769
1461.181618	29.631778
1461.287549	38.733701
1461.393491	42.770303
1461.499445	35.424528
1461.605410	15.881117
1461.711387	5.563038
1461.817375	9.890514
1461.923375	22.488160
1462.029386	29.432711
1462.135409	26.490628
1462.241444	16.843916
1462.347490	6.867517
1462.453547	0.128744
1462.559616	19.444019
1462.665697	37.549402
1462.771789	44.674251
1462.877892	45.351726
1462.984008	33.310914
1463.090134	18.593071
1463.196273	27.938120
1463.302422	39.746186
1463.408584	44.452943
1463.514757	43.306784
1463.620941	41.086309
1463.727137	30.636915
1463.833345	18.525364
1463.939564	14.756972
1464.045795	8.517657
1464.152037	0.163071
1464.258291	0.000000
1464.364556	0.000000
1464.470833	16.177521
1464.577122	32.739251
1464.683422	47.916726
1464.789734	56.217014
1464.896057	49.382772
1465.002392	27.504003
1465.108738	29.439248
1465.215096	33.220642
1465.321466	39.765854
1465.427847	35.058549
1465.534240	22.534440
1465.640644	0.430319
1465.747060	0.000000
1465.853488	5.636876
1465.959927	25.701219
1466.066378	42.134284
1466.172840	52.962237
1466.279314	48.623924
1466.385799	32.093036
1466.492296	17.706346
1466.598805	23.967174
1466.705326	21.511718
1466.811857	22.033187
1466.918401	16.333732
1467.024956	9.735396
1467.131523	0.185937
1467.238101	0.000000
1467.344691	0.000000
1467.451293	8.253235
1467.557906	19.197915
1467.664531	26.483338
1467.771167	25.558485
1467.877815	17.893996
1467.984475	8.777308
1468.091146	0.165427
1468.197829	0.000000
1468.304524	0.000000
1468.411230	0.000000
1468.517948	0.000000
1468.944936	0.000000
1469.051712	0.000000
1469.158499	0.000000
1469.265299	0.000000
1469.372110	7.222937
1469.478932	14.635819
1469.585767	19.980193
1469.692612	20.572760
1469.799470	15.973662
1469.906339	8.492989
1470.013220	0.161469
1470.120113	0.000000
1470.227017	0.000000
1470.333933	5.520101
1470.440860	15.671750
1470.547799	27.873893
1470.654750	46.191803
1470.761713	50.370248
1470.868687	42.562356
1470.975673	28.397886
1471.082670	11.063219
1471.189680	0.205826
1471.296700	7.848864
1471.403733	16.994525
1471.510777	22.112400
1471.617833	19.589838
1471.724901	11.375364
1471.831980	0.217614
1471.939071	0.000000
1472.046174	0.000000
1472.153288	9.140051
1472.260414	20.380361
1472.367552	33.398303
1472.474701	36.923947
1472.581862	26.371824
1472.689035	9.992590
1472.796220	0.185024
1472.903416	11.662018
1473.010624	18.877559
1473.117843	32.470618
1473.225075	46.329807
1473.332318	51.817882
1473.439573	44.808540
1473.546839	23.644126
1473.654117	6.361930
1473.761407	7.779437
1473.868709	24.817862
1473.976022	36.375455
1474.083347	39.020883
1474.190684	35.475020
1474.298033	25.824878
1474.405393	24.190250
1474.512765	27.083827
1474.620148	21.172309
1474.727544	10.693655
1474.834951	0.202132
1474.942370	0.000000
1475.049801	0.000000
1475.157243	0.000000
1475.264697	8.370024
1475.372163	17.540106
1475.479640	22.180610
1475.587130	19.444130
1475.694631	11.463434
1475.802144	0.218014
1475.909668	0.000000
1476.017205	0.000000
1476.124753	10.100457
1476.232313	22.801339
1476.339884	37.596076
1476.447467	44.629347
1476.555063	36.791227
1476.662669	18.550824
1476.770288	0.350027
1476.877919	0.000000
1476.985561	10.059068
1477.093215	20.959340
1477.200880	28.307183
1477.308558	27.501178
1477.416247	19.826262
1477.523948	26.791611
1477.631661	36.011960
1477.739386	50.040387
1477.847122	56.997775
1477.954870	60.150004
1478.062630	68.127759
1478.170402	78.244976
1478.278185	89.647032
1478.385981	74.060152
1478.493788	54.341131
1478.601606	37.406327
1478.709437	30.077063
1478.817280	30.062231
1478.925134	27.558744
1479.033000	22.298295
1479.140878	36.604488
1479.248768	44.661827
1479.356669	44.192802
1479.464582	36.040917
1479.572507	17.268437
1479.680444	8.744717
1479.788393	14.124299
1479.896354	17.538902
1480.004326	15.232891
1480.112310	17.679337
1480.220306	26.849535
1480.328314	39.135336
1480.436333	44.960711
1480.544365	46.019935
1480.652408	41.625544
1480.760463	34.412519
1480.868530	15.683560
1480.976609	26.931303
1481.084700	50.039234
1481.192802	72.358004
1481.300916	76.420361
1481.409042	59.133717
1481.517180	30.990674
1481.625330	9.661765
1481.733492	0.178751
1481.841665	0.000000
1481.949850	0.000000
1482.058048	10.582047
1482.166257	17.467803
1482.274477	19.462046
1482.382710	24.838649
1482.490955	25.319434
1482.599211	22.606377
1482.707479	18.278031
1482.815760	16.059818
1482.924052	17.501843
1483.032355	36.627461
1483.140671	52.314268
1483.248999	58.950480
1483.357338	62.265200
1483.465690	71.193662
1483.574053	61.351927
1483.682428	66.185516
1483.790815	69.617222
1483.899214	61.082166
1484.007624	64.769608
1484.116047	73.010050
1484.224481	69.902364
1484.332928	60.283081
1484.441386	49.081467
1484.549856	29.818947
1484.658338	9.373097
1484.766832	0.173221
1484.875338	0.000000
1484.983856	20.139958
1485.092385	47.259673
1485.200927	65.576367
1485.309480	62.062098
1485.418045	41.611782
1485.526623	22.860248
1485.635212	3.344069
1485.743813	21.204822
1485.852426	48.434588
1485.961051	64.750756
1486.069687	80.183794
1486.178336	74.162355
1486.286997	54.270626
1486.395669	39.422671
1486.504354	45.342270
1486.613050	52.628596
1486.721758	49.831753
1486.830478	35.381583
1486.939210	26.548003
1487.047954	25.200818
1487.156710	22.479873
1487.265478	21.817811
1487.374258	21.986026
1487.483050	33.167831
1487.591854	36.105081
1487.700669	35.798047
1487.809497	35.452645
1487.918336	29.007430
1488.027188	23.305547
1488.136051	27.028391
1488.244927	44.955477
1488.353814	68.822702
1488.462713	89.895050
1488.571624	80.789122
1488.680548	57.579063
1488.789483	28.437270
1488.898430	16.765073
1489.007389	15.662303
1489.116360	11.643956
1489.225343	0.222536
1489.334338	14.492516
1489.443345	33.405863
1489.552363	57.046622
1489.661394	70.871315
1489.770437	77.136529
1489.879492	78.776681
1489.988559	73.226531
1490.097637	57.224059
1490.206728	45.830283
1490.315831	42.520132
1490.424945	55.869785
1490.534072	74.231800
1490.643211	82.849177
1490.752361	74.976433
1490.861524	64.909046
1490.970698	68.428174
1491.079885	73.425211
1491.189084	78.286098
1491.298294	77.863219
1491.407517	62.020345
1491.516751	48.463713
1491.625998	36.627549
1491.735257	29.193881
1491.844527	26.794776
1491.953810	31.399524
1492.063104	46.686355
1492.172411	52.451653
1492.281730	55.967864
1492.391060	44.916170
1492.500403	23.268529
1492.609758	34.101012
1492.719124	42.134978
1492.828503	58.806962
1492.937894	74.303028
1493.047297	75.471235
1493.156711	59.009706
1493.266138	48.484467
1493.375577	42.463932
1493.485028	37.107272
1493.594491	46.915905
1493.703966	72.160905
1493.813453	92.135573
1493.922952	100.681272
1494.032463	88.737155
1494.141986	71.934275
1494.251521	59.135809
1494.361068	67.957961
1494.470628	94.069318
1494.580199	138.468266
1494.689782	162.480093
1494.799378	155.852814
1494.908985	130.746109
1495.018604	94.889952
1495.128236	56.088749
1495.237880	45.511277
1495.347535	66.182985
1495.457203	70.688496
1495.566883	53.505765
1495.676575	34.173330
1495.786279	22.470378
1495.895995	46.954609
1496.005723	72.794791
1496.115463	78.988359
1496.225215	60.280275
1496.334980	36.660346
1496.444756	8.343629
1496.554544	0.143001
1496.664345	0.000000
1496.774158	0.000000
1496.883982	0.000000
1496.993819	0.000000
1497.103668	0.000000
1497.213529	0.000000
1497.323402	0.000000
1497.433287	23.768386
1497.543185	49.093302
1497.653094	62.963711
1497.763015	55.274268
1497.872949	31.837940
1497.982895	9.223907
1498.092852	0.168140
1498.202822	18.647724
1498.312804	36.200571
1498.422798	47.827680
1498.532805	46.015579
1498.642823	32.497209
1498.752854	26.066588
1498.862896	22.733436
1498.972951	29.154174
1499.083018	24.291587
1499.193097	12.037401
1499.303188	0.224089
1499.413291	0.000000
1499.523406	0.000000
1499.633534	0.000000
1499.743673	0.000000
1499.853825	0.000000
1499.963989	0.000000
1500.074165	0.000000
1500.184353	15.043113
1500.294553	27.297491
1500.404766	41.588050
1500.514990	50.683218
1500.625227	47.393929
1500.735476	24.200297
1500.845737	11.221170
1500.956010	11.074394
1501.066295	20.700086
1501.176593	29.957692
1501.286902	33.469096
1501.397224	29.065578
1501.507558	18.973099
1501.617904	23.658082
1501.728262	47.598299
1501.838633	82.891880
1501.949016	104.231196
1502.059410	110.159210
1502.169817	96.864191
1502.280236	84.973880
1502.390668	61.602159
1502.501111	40.030966
1502.611567	10.787685
1502.722035	0.185718
1502.832515	0.000000
1502.943007	0.000000
1503.053511	0.000000
1503.164028	0.000000
1503.274557	0.000000
1503.385098	0.000000
1503.495651	0.000000
1503.606216	23.383571
1503.716794	43.803614
1503.827383	58.035298
1503.937985	66.072637
1504.048599	63.782577
1504.159226	50.922554
1504.269864	44.486680
1504.380515	32.943585
1504.491178	15.462835
1504.601853	0.285927
1504.712541	12.214080
1504.823240	22.286653
1504.933952	26.593115
1505.044676	31.488303
1505.155412	34.352154
1505.266161	35.421823
1505.376922	49.553674
1505.487695	74.453973
1505.598480	75.808233
1505.709277	53.823468
1505.820087	36.720232
1505.930909	16.833744
1506.041743	0.300484
1506.152589	0.000000
1506.263448	0.000000
1506.374318	0.000000
1506.485201	0.000000
1507.261726	0.000000
1507.372707	0.000000
1507.483700	0.000000
1507.594706	0.000000
1507.705723	19.112626
1507.816753	44.644584
1507.927796	64.827468
1508.038850	65.572391
1508.149917	46.511438
1508.260996	16.273997
1508.372088	0.292282
1508.483192	0.000000
1508.594308	0.000000
1508.705436	0.000000
1508.816576	0.000000
1509.150072	0.000000
1509.261261	0.000000
1509.372463	0.000000
1509.483678	0.000000
1509.594904	14.885861
1509.706143	25.940920
1509.817394	50.603513
1509.928657	58.199101
1510.039933	49.438092
1510.151221	27.731332
1510.262522	12.675931
1510.373834	0.222217
1510.485159	0.000000
1510.596496	0.000000
1510.707846	0.000000
1510.819208	0.000000
1510.930582	16.284365
1511.041969	26.985924
1511.153367	30.151110
1511.264779	23.910914
1511.376202	12.527796
1511.487638	0.231135
1511.599086	0.000000
1511.710546	0.000000
1511.822019	0.000000
1511.933504	9.881996
1512.045002	21.544259
1512.156511	30.980694
1512.268034	47.370562
1512.379568	48.075392
1512.491115	57.478739
1512.602674	56.360912
1512.714245	69.653617
1512.825829	59.825935
1512.937425	48.765009
1513.049034	23.068889
1513.160655	10.627313
1513.272288	0.197922
1513.383933	11.036024
1513.495591	24.235995
1513.607262	43.879182
1513.718944	51.017313
1513.830639	45.545914
1513.942347	26.930424
1514.054066	30.309697
1514.165798	36.933357
1514.277543	59.517536
1514.389300	67.592369
1514.501069	55.832006
1514.612850	33.130532
1514.724644	0.620073
1514.836451	0.000000
1514.948269	16.116354
1515.060101	26.499772
1515.171944	32.811278
1515.283800	32.112313
1515.395668	25.194812
1515.507549	15.283981
1515.619442	12.253641
1515.731347	28.210215
1515.843265	40.509420
1515.955195	41.517010
1516.067138	31.542662
1516.179093	17.674154
1516.291060	0.326322
1516.403040	0.000000
1516.515032	0.000000
1516.627037	0.000000
1516.739054	11.822916
1516.851083	23.470198
1516.963125	31.066305
1517.075180	29.297811
1517.187246	19.170052
1517.299325	10.364974
1517.411417	21.290484
1517.523521	37.625751
1517.635637	45.123002
1517.747766	41.220481
1517.859907	29.510264
1517.972061	19.323373
1518.084227	0.361551
1518.196405	26.441901
1518.308596	47.174923
1518.420800	59.145907
1518.533016	53.875542
1518.645244	34.500889
1518.757485	0.629756
1518.869738	0.000000
1518.982003	0.000000
1519.094281	0.000000
1519.206572	0.000000
1519.318875	0.000000
1519.431190	0.000000
1519.543518	0.000000
1519.655858	0.000000
1519.768211	11.030238
1519.880576	21.455649
1519.992954	27.138467
1520.105344	39.546423
1520.217747	33.926133
1520.330162	25.280068
1520.442589	23.406753
1520.555029	17.922066
1520.667482	0.337646
1520.779947	13.848031
1520.892424	24.303206
1521.004914	30.133577
1521.117417	28.463970
1521.229932	20.982492
1521.342459	0.388649
1521.454999	12.541472
1521.567551	29.768703
1521.680116	59.557233
1521.792693	83.144148
1521.905283	84.972955
1522.017885	60.807948
1522.130500	32.714456
1522.243128	15.072543
1522.355767	39.875345
1522.468420	53.545359
1522.581085	50.294109
1522.693762	32.599581
1522.806452	12.147519
1522.919154	0.220334
1523.031869	0.000000
1523.144596	0.000000
1523.257336	15.343785
1523.370089	24.899536
1523.482854	34.555163
1523.595631	41.274567
1523.708421	56.730612
1523.821224	56.373546
1523.934039	47.944369
1524.046866	46.520698
1524.159706	60.968256
1524.272559	78.114228
1524.385424	93.919644
1524.498302	95.215747
1524.611192	82.384339
1524.724095	60.772786
1524.837010	36.452324
1524.949938	25.905026
1525.062878	40.220749
1525.175831	62.995830
1525.288797	87.735390
1525.401775	92.321920
1525.514765	74.728920
1525.627768	41.676148
1525.740784	14.868842
1525.853812	0.266075
1525.966853	30.576975
1526.079907	59.257629
1526.192973	73.773312
1526.306051	62.130610
1526.419142	50.557272
1526.532246	25.983346
1526.645362	33.097845
1526.758491	51.002473
1526.871632	73.532694
1526.984786	76.279136
1527.097953	78.050361
1527.211132	77.355091
1527.324324	60.896343
1527.437528	24.571149
1527.550745	10.559913
1527.663974	0.194068
1527.777216	19.852888
1527.890471	30.352764
1528.003738	33.171667
1528.117018	25.810879
1528.230310	13.230700
1528.343615	0.243968
1528.456933	0.000000
1528.570263	0.000000
1528.683606	0.000000
1528.796962	10.822844
1528.910330	50.578592
1529.023710	80.101828
1529.137104	85.946229
1529.250509	63.782608
1529.363928	29.884161
1529.477359	15.386183
1529.590803	26.617098
1529.704259	35.810290
1529.817728	37.140781
1529.931210	29.839844
1530.044704	17.792509
1530.158211	0.329499
1530.271730	0.000000
1530.385262	0.000000
1530.498807	0.000000
1530.612365	24.538958
1530.725935	48.142428
1530.839517	58.849151
1530.953113	48.767292
1531.066721	35.588896
1531.180341	22.376654
1531.293975	29.193890
1531.407621	43.202601
1531.521279	43.320316
1531.634950	51.972764
1531.748634	62.530070
1531.862331	59.587701
1531.976040	37.466210
1532.089762	20.870974
1532.203496	0.381616
1532.317243	0.000000
1532.431003	13.192168
1532.544776	43.596907
1532.658561	59.657334
1532.772359	72.784161
1532.886169	73.246848
1532.999993	77.677532
1533.113829	76.265934
1533.227677	92.255776
1533.341538	78.444987
1533.455412	65.825547
1533.569299	49.242599
1533.683198	27.839177
1533.797110	0.509959
1533.911035	0.000000
1534.024972	0.000000
1534.138922	0.000000
1534.252885	0.000000
1534.366861	0.000000
1534.480849	0.000000
1534.594850	12.875068
1534.708863	28.267946
1534.822890	41.680859
1534.936929	54.680418
1535.050980	74.960221
1535.165045	89.761351
1535.279122	89.347454
1535.393212	81.851274
1535.507314	56.523647
1535.621430	42.560705
1535.735558	43.582019
1535.849698	52.684438
1535.963852	80.758096
1536.078018	79.938265
1536.192197	64.052634
1536.306389	44.271272
1536.420593	23.351164
1536.534810	13.155687
1536.649040	0.235988
1536.763283	18.930601
1536.877538	32.380919
1536.991806	34.714945
1537.106087	24.393193
1537.220380	10.475687
1537.334687	0.192009
1537.449006	0.000000
1537.563338	25.556717
1537.677682	50.716591
1537.792040	93.039840
1537.906410	126.035834
1538.020792	132.893521
1538.135188	132.696674
1538.249596	103.134398
1538.364018	61.413158
1538.478451	29.053371
1538.592898	32.353560
1538.707358	34.363813
1538.821830	50.991563
1538.936315	51.627123
1539.050813	41.745968
1539.165323	24.042095
1539.279846	13.069481
1539.394383	0.242024
1539.508931	14.004726
1539.623493	25.413176
1539.738068	43.608875
1539.852655	57.180942
1539.967255	60.370953
1540.081868	50.229093
1540.196493	21.122439
1540.311132	8.551241
1540.425783	16.371997
1540.540447	40.117482
1540.655124	77.048803
1540.769814	89.175056
1540.884516	73.318719
1540.999231	34.742780
1541.113959	12.732187
1541.228700	0.231270
1541.343454	9.660978
1541.458220	69.958186
1541.573000	108.361598
1541.687792	148.684335
1541.802597	151.451631
1541.917415	125.671012
1542.032245	76.751099
1542.147089	37.410525
1542.261945	21.972947
1542.376814	43.707142
1542.491696	54.016604
1542.606591	50.986393
1542.721499	70.996107
1542.836419	87.594202
1542.951352	90.999392
1543.066298	70.985331
1543.181257	46.512359
1543.296229	2.121047
1543.411214	3.138467
1543.526212	31.358601
1543.641222	86.456619
1543.756245	143.961213
1543.871281	136.494419
1543.986330	145.074381
1544.101392	139.460310
1544.216467	117.921423
1544.331554	88.957381
1544.446655	70.279545
1544.561768	67.424175
1544.676894	77.591987
1544.792033	68.112963
1544.907185	56.805725
1545.022350	35.706950
1545.137528	29.944862
1545.252718	32.624450
1545.367922	55.319370
1545.483138	76.345234
1545.598367	91.354303
1545.713609	91.834480
1545.828864	71.170404
1545.944132	61.089757
1546.059413	39.474393
1546.174706	18.516011
1546.290013	19.301220
1546.405332	59.241713
1546.520665	111.346679
1546.636010	123.320708
1546.751368	111.387467
1546.866739	78.366544
1546.982123	50.094435
1547.097520	34.018011
1547.212930	73.029268
1547.328352	116.405587
1547.443788	125.046481
1547.559237	105.005342
1547.674698	60.874924
1547.790172	21.691096
1547.905660	0.391965
1548.021160	0.000000
1548.136673	17.583576
1548.252199	26.482704
1548.367738	27.421344
1548.483290	35.355439
1548.598855	39.203554
1548.714433	53.360798
1548.830024	60.950275
1548.945627	53.233784
1549.061244	35.416094
1549.176874	26.837723
1549.292516	21.518904
1549.408172	27.544815
1549.523840	26.121918
1549.639521	28.681380
1549.755216	39.400757
1549.870923	59.890058
1549.986643	71.067568
1550.102377	67.385986
1550.218123	62.869400
1550.333882	54.806845
1550.449654	78.455246
1550.565439	87.170062
1550.681237	104.100994
1550.797048	107.706539
1550.912872	122.638740
1551.028709	120.840295
1551.144559	125.498757
1551.260422	106.309554
1551.376298	88.617714
1551.492187	81.919432
1551.608089	75.305150
1551.724004	70.966175
1551.839932	54.574584
1551.955872	46.359287
1552.071826	40.503759
1552.187793	24.987245
1552.303773	9.794810
1552.419766	9.683056
1552.535772	23.633547
1552.651791	31.028883
1552.767822	39.248276
1552.883867	40.354380
1552.999925	35.698933
1553.115996	32.573033
1553.232080	50.234929
1553.348177	63.864561
1553.464287	70.860003
1553.580410	64.352942
1553.696546	60.672802
1553.812695	40.697958
1553.928857	26.085584
1554.045032	50.694965
1554.161220	68.976166
1554.277421	82.929734
1554.393635	96.512299
1554.509862	97.927865
1554.626103	77.540490
1554.742356	43.839869
1554.858622	22.887977
1554.974901	11.515394
1555.091194	16.713999
1555.207499	29.515001
1555.323818	35.281165
1555.440149	28.903948
1555.556494	15.074470
1555.672851	11.019321
1555.789222	47.007092
1555.905606	85.775255
1556.022003	100.490273
1556.138412	91.703796
1556.254835	65.069425
1556.371271	25.600272
1556.487720	12.357220
1556.604183	0.224002
1556.720658	0.000000
1556.837146	25.629905
1556.953647	63.781600
1557.070162	89.874462
1557.186689	84.786676
1557.303230	54.631838
1557.419784	36.775765
1557.536350	24.287230
1557.652930	28.614414
1557.769523	23.506962
1557.886129	30.350132
1558.002748	23.566104
1558.119380	27.397845
1558.236026	27.095226
1558.352684	34.699624
1558.469356	37.784159
1558.586040	51.833456
1558.702738	51.543625
1558.819449	36.732474
1558.936173	11.744971
1559.052910	10.590893
1559.169660	24.625908
1559.286423	46.067239
1559.403200	56.466974
1559.519989	48.902221
1559.636792	22.124702
1559.753608	9.904382
1559.870436	7.093423
1559.987278	43.833368
1560.104134	97.928056
1560.221002	127.539065
1560.337883	118.402886
1560.454778	77.626807
1560.571685	29.146296
1560.688606	0.522474
1560.805540	12.889122
1560.922487	22.744473
1561.039448	38.104492
1561.156421	44.083304
1561.273407	39.870574
1561.390407	26.402784
1561.507420	15.596712
1561.624446	48.521248
1561.741485	80.287705
1561.858537	96.070549
1561.975603	115.017676
1562.092681	113.168880
1562.209773	79.409943
1562.326878	70.100366
1562.443996	70.781850
1562.561128	66.407355
1562.678272	92.525455
1562.795430	128.591982
1562.912600	147.617072
1563.029784	160.940213
1563.146982	143.086572
1563.264192	90.123622
1563.381415	54.213353
1563.498652	71.282782
1563.615902	95.352251
1563.733165	100.252039
1563.850441	83.127102
1563.967731	64.664069
1564.085034	48.800459
1564.202350	53.020826
1564.319679	63.378812
1564.437021	55.003679
1564.554376	67.212883
1564.671745	65.208364
1564.789127	63.936210
1564.906522	73.995765
1565.023930	84.414319
1565.141352	74.619640
1565.258787	81.366976
1565.376235	67.971258
1565.493696	38.660636
1565.611170	32.670812
1565.728658	24.689988
1565.846159	43.683789
1565.963673	59.489131
1566.081200	61.257867
1566.198741	44.530294
1566.316294	29.435936
1566.433861	25.678930
1566.551442	41.053955
1566.669035	61.725048
1566.786642	64.661175
1566.904262	53.818794
1567.021895	30.059367
1567.139541	35.400709
1567.257201	29.707975
1567.374874	38.568786
1567.492560	40.336577
1567.610260	33.126789
1567.727972	20.431333
1567.845698	14.826108
1567.963438	25.792439
1568.081190	29.804925
1568.198956	37.484376
1568.316735	39.403344
1568.434527	30.432206
1568.552333	23.514196
1568.670152	10.451161
1568.787984	9.736420
1568.905829	23.527292
1569.023688	49.237211
1569.141560	69.695289
1569.259445	73.735506
1569.377344	53.081621
1569.495256	42.925990
1569.613181	30.300574
1569.731119	41.024300
1569.849071	42.522567
1569.967036	65.961391
1570.085014	76.522702
1570.203006	70.980298
1570.321010	62.765204
1570.439029	49.909135
1570.557060	51.637437
1570.675105	57.365003
1570.793163	66.590171
1570.911235	53.691636
1571.029319	48.399089
1571.147417	28.207320
1571.265529	23.529195
1571.383653	37.330027
1571.501791	36.328208
1571.619943	48.748353
1571.738107	45.271546
1571.856285	50.546182
1571.974477	57.701384
1572.092681	69.665316
1572.210899	63.755568
1572.329131	67.173815
1572.447375	58.591272
1572.565633	59.041529
1572.683905	78.239658
1572.802189	94.466027
1572.920487	106.258041
1573.038799	91.448551
1573.157123	64.851687
1573.275461	47.420960
1573.393813	52.344260
1573.512178	48.101557
1573.630556	24.260373
1573.748947	12.758522
1573.867352	0.230437
1573.985770	0.000000
1574.104202	0.000000
1574.222647	0.000000
1574.341105	15.571645
1574.459577	27.433987
1574.578062	31.661470
1574.696560	25.705174
1574.815072	14.040647
1574.933597	15.442818
1575.052136	26.166063
1575.170688	29.823648
1575.289253	33.584188
1575.407832	34.749573
1575.526424	47.709782
1575.645029	61.911135
1575.763648	60.937185
1575.882281	45.287829
1576.000926	21.892530
1576.119585	46.613452
1576.238258	80.114070
1576.356944	111.527776
1576.475643	118.253841
1576.594356	116.173943
1576.713082	101.499319
1576.831822	120.527118
1576.950574	152.064129
1577.069341	151.246596
1577.188121	105.900706
1577.306914	61.507535
1577.425720	41.693660
1577.544541	35.177390
1577.663374	66.091835
1577.782221	99.974477
1577.901081	111.123581
1578.019955	81.433999
1578.138842	47.622823
1578.257743	16.061287
1578.376657	10.739028
1578.495584	49.177036
1578.614525	103.328987
1578.733480	159.529482
1578.852448	188.120915
1578.971429	213.632969
1579.090424	178.389998
1579.209432	140.323220
1579.328453	123.381759
1579.447489	91.752145
1579.566537	108.859925
1579.685599	126.122244
1579.804675	137.202721
1579.923764	122.344470
1580.042866	134.431870
1580.161982	165.389169
1580.281111	167.167208
1580.400254	165.209669
1580.519410	144.945441
1580.638580	98.423581
1580.757763	71.186025
1580.876960	101.401394
1580.996170	122.170811
1581.115394	170.547235
1581.234631	210.162043
1581.353882	215.732199
1581.473146	175.216786
1581.592424	133.125817
1581.711715	98.820246
1581.831019	56.406717
1581.950338	92.453737
1582.069669	104.925203
1582.189014	152.771567
1582.308373	171.006888
1582.427745	196.194735
1582.547131	195.047357
1582.666530	160.128773
1582.785943	89.014695
1582.905369	42.716201
1583.024809	37.711548
1583.144262	69.264306
1583.263729	130.612764
1583.383209	195.066044
1583.502703	211.109606
1583.622210	206.516918
1583.741731	168.590622
1583.861266	120.023564
1583.980813	116.129741
1584.100375	98.158458
1584.219950	98.322965
1584.339538	101.763764
1584.459141	104.422082
1584.578756	108.114522
1584.698385	154.948518
1584.818028	154.512260
1584.937684	135.374256
1585.057354	100.218281
1585.177038	87.633954
1585.296735	120.301259
1585.416445	146.306580
1585.536169	154.895749
1585.655907	177.037549
1585.775658	214.537444
1585.895423	273.981255
1586.015201	320.278982
1586.134993	331.140700
1586.254798	287.517418
1586.374617	242.592763
1586.494450	227.703533
1586.614296	194.316018
1586.734156	178.765580
1586.854029	144.875160
1586.973916	121.369595
1587.093817	101.282164
1587.213731	109.136036
1587.333659	147.116451
1587.453600	224.060016
1587.573555	229.115298
1587.693523	187.097941
1587.813505	130.101619
1587.933501	98.755204
1588.053510	82.537923
1588.173533	115.798128
1588.293570	167.915060
1588.413620	215.171747
1588.533684	236.677371
1588.653761	237.704550
1588.773852	219.341379
1588.893957	186.619013
1589.014075	152.953004
1589.134207	142.421290
1589.254352	152.725910
1589.374511	260.852394
1589.494684	335.753450
1589.614870	355.885616
1589.735070	301.603814
1589.855284	214.235701
1589.975511	147.698553
1590.095752	105.372395
1590.216006	88.700764
1590.336274	57.528086
1590.456556	37.670750
1590.576852	33.198485
1590.697161	53.947031
1590.817483	83.043480
1590.937820	101.690193
1591.058170	104.576043
1591.178534	84.422404
1591.298911	46.919476
1591.419302	0.844364
1591.539707	0.000000
1591.660125	23.716913
1591.780557	51.302377
1591.901003	69.639181
1592.021462	77.078306
1592.141935	66.699971
1592.262422	44.217474
1592.382922	28.122490
1592.503436	16.670202
1592.623964	29.390496
1592.744505	48.973181
1592.865061	60.211377
1592.985629	67.780852
1593.106212	67.469065
1593.226808	61.471955
1593.347418	35.851868
1593.468041	33.720037
1593.588679	50.092838
1593.709330	60.911590
1593.829994	71.490105
1593.950673	77.828452
1594.071365	66.593108
1594.192071	43.074546
1594.312790	42.073705
1594.433523	31.966161
1594.554270	43.739291
1594.675031	44.104004
1594.795805	35.266383
1594.916593	43.817970
1595.037395	58.823365
1595.158211	72.712668
1595.279040	94.269434
1595.399883	112.791847
1595.520740	129.362048
1595.641610	126.275836
1595.762494	108.034764
1595.883392	84.089916
1596.004304	57.357570
1596.125229	35.932566
1596.246168	66.777103
1596.367121	89.697537
1596.488088	93.240692
1596.609068	74.237195
1596.730063	36.055661
1596.851070	8.643423
1596.972092	38.914784
1597.093128	54.871642
1597.214177	60.288395
1597.335240	49.280228
1597.456316	40.144517
1597.577407	25.973785
1597.698511	38.953338
1597.819629	45.262955
1597.940761	55.344044
1598.061906	56.204747
1598.183066	49.627390
1598.304239	30.495562
1598.425426	29.882900
1598.546627	31.855955
1598.667841	39.993505
1598.789069	42.264890
1598.910311	35.078961
1599.031567	23.173033
1599.152837	15.934029
1599.274120	0.287757
1599.395417	0.000000
1599.516728	10.145296
1599.638053	36.535833
1599.759392	69.518712
1599.880744	82.290644
1600.002111	67.376527
1600.123491	40.456489
1600.244885	44.092135
1600.366292	72.897205
1600.487714	114.519071
1600.609149	127.980276
1600.730598	103.557160
1600.852061	59.241562
1600.973538	27.571422
1601.095029	20.949544
1601.216533	29.729255
1601.338051	38.554835
1601.459583	36.088365
1601.581129	27.415684
1601.702689	25.647634
1601.824263	16.175641
1601.945850	14.931382
1602.067452	29.614000
1602.189067	38.261059
1602.310696	34.176288
1602.432339	36.973564
1602.553995	62.503609
1602.675666	94.165121
1602.797350	118.064449
1602.919049	128.235341
1603.040761	107.103989
1603.162487	74.621887
1603.284227	48.295855
1603.405980	37.992187
1603.527748	51.712960
1603.649530	95.345021
1603.771325	101.460853
1603.893134	91.894571
1604.014957	82.669109
1604.136794	90.368186
1604.258645	97.899666
1604.380510	119.814414
1604.502388	110.324736
1604.624281	111.547763
1604.746187	109.675162
1604.868108	93.707923
1604.990042	68.439833
1605.111990	44.406771
1605.233952	31.286994
1605.355928	31.633862
1605.477918	34.694713
1605.599922	27.588603
1605.721939	21.953134
1605.843971	27.998003
1605.966016	64.223087
1606.088075	95.100296
1606.210149	98.370822
1606.332236	107.098247
1606.454337	98.548143
1606.576452	83.946308
1606.698581	51.722810
1606.820724	40.787173
1606.942881	75.186617
1607.065052	120.207063
1607.187236	134.811630
1607.309435	106.836536
1607.431647	54.262929
1607.553874	43.887942
1607.676114	83.424813
1607.798369	133.699410
1607.920637	148.094088
1608.042919	119.938322
1608.165215	84.271771
1608.287526	61.730235
1608.409850	75.716364
1608.532188	89.819123
1608.654540	108.832806
1608.776906	121.008499
1608.899286	156.813624
1609.021680	166.750093
1609.144088	138.692658
1609.266510	65.463781
1609.388945	31.362939
1609.511395	23.786601
1609.633859	77.542223
1609.756337	121.543762
1609.878828	162.087587
1610.001334	171.216273
1610.123854	157.628831
1610.246388	115.043951
1610.368935	100.573150
1610.491497	134.853844
1610.614073	178.703859
1610.736662	183.379301
1610.859266	132.303745
1610.981884	54.381778
1611.104515	56.577936
1611.227161	110.899792
1611.349821	200.666534
1611.472494	222.304426
1611.595182	201.986019
1611.717884	146.053893
1611.840599	105.648887
1611.963329	92.521459
1612.086073	118.145173
1612.208830	130.212294
1612.331602	111.624174
1612.454388	94.174691
1612.577188	67.740896
1612.700002	63.956353
1612.822830	45.034507
1612.945672	36.822946
1613.068528	33.305359
1613.191398	26.584975
1613.314282	29.973320
1613.437180	44.169351
1613.560092	56.326256
1613.683018	77.365270
1613.805958	56.721135
1613.928912	39.087964
1614.051881	29.484344
1614.174863	49.919195
1614.297859	83.027007
1614.420870	108.038023
1614.543895	119.206236
1614.666933	131.740100
1614.789986	130.198822
1614.913053	109.865843
1615.036133	109.255621
1615.159228	116.043415
1615.282337	113.407133
1615.405460	146.569284
1615.528597	170.064162
1615.651749	178.461616
1615.774914	166.642336
1615.898093	146.270659
1616.021287	147.050073
1616.144494	184.571982
1616.267716	192.550217
1616.390951	167.041697
1616.514201	130.812071
1616.637465	76.165669
1616.760743	33.695495
1616.884035	9.186692
1617.007341	11.547047
1617.130662	29.628566
1617.253996	50.163098
1617.377345	58.803769
1617.500707	75.943239
1617.624084	94.482918
1617.747475	101.932588
1617.870880	102.276212
1617.994299	129.963383
1618.117732	135.746634
1618.241180	126.220843
1618.364641	94.826100
1618.488117	56.795331
1618.611607	41.636838
1618.735111	87.679343
1618.858629	150.479273
1618.982161	172.572386
1619.105707	164.217042
1619.229267	136.649892
1619.352842	110.908945
1619.476431	88.952601
1619.600034	98.977279
1619.723651	119.388334
1619.847282	115.850972
1619.970927	109.366781
1620.094587	101.535838
1620.218260	113.770593
1620.341948	134.454724
1620.465650	127.474314
1620.589366	79.718895
1620.713097	82.172846
1620.836841	106.252239
1620.960600	146.069144
1621.084373	174.007412
1621.208160	154.892409
1621.331961	109.153760
1621.455776	77.614367
1621.579606	86.677708
1621.703450	92.717704
1621.827308	86.470983
1621.951180	52.904862
1622.075066	55.523156
1622.198967	74.758433
1622.322881	139.472673
1622.446810	178.649358
1622.570753	188.556141
1622.694711	153.336255
1622.818682	112.441922
1622.942668	87.496125
1623.066668	88.264239
1623.190682	118.000929
1623.314710	131.899809
1623.438753	128.559813
1623.562810	130.740500
1623.686881	121.059859
1623.810966	107.979783
1623.935065	105.002188
1624.059179	123.562181
1624.183307	157.126402
1624.307449	192.645835
1624.431605	234.185419
1624.555776	247.969334
1624.679961	289.949715
1624.804160	298.501412
1624.928373	250.086459
1625.052601	207.959489
1625.176843	168.567409
1625.301099	150.047273
1625.425369	135.614214
1625.549654	151.210768
1625.673953	171.379291
1625.798266	208.084325
1625.922593	226.836520
1626.046935	210.645226
1626.171291	145.640699
1626.295661	120.954379
1626.420045	137.771571
1626.544444	192.085164
1626.668857	258.859596
1626.793284	276.514092
1626.917726	258.970136
1627.042181	183.606868
1627.166651	156.699318
1627.291136	140.743769
1627.415634	138.356370
1627.540147	197.144761
1627.664675	225.317809
1627.789216	187.862208
1627.913772	188.883141
1628.038342	188.884862
1628.162926	218.765763
1628.287525	242.557260
1628.412138	263.844991
1628.536765	306.805294
1628.661407	343.611484
1628.786063	343.739159
1628.910733	332.814964
1629.035418	256.848876
1629.160117	183.413912
1629.284830	107.951286
1629.409557	104.238352
1629.534299	144.777974
1629.659055	191.499566
1629.783826	189.223513
1629.908611	186.453351
1630.033410	183.981451
1630.158223	184.424614
1630.283051	187.259227
1630.407893	207.560739
1630.532750	224.666474
1630.657621	289.975816
1630.782506	295.308748
1630.907405	265.984061
1631.032319	238.306421
1631.157247	250.211217
1631.282190	259.302095
1631.407147	244.078465
1631.532118	201.064145
1631.657104	229.209095
1631.782104	250.042081
1631.907118	266.561396
1632.032147	262.934221
1632.157190	246.765338
1632.282248	309.408440
1632.407320	352.005182
1632.532406	402.418347
1632.657506	388.678639
1632.782621	316.341479
1632.907751	233.894867
1633.032895	221.139032
1633.158053	269.180011
1633.283225	360.297567
1633.408412	474.557117
1633.533614	537.741609
1633.658829	490.104687
1633.784059	307.164518
1633.909304	167.670414
1634.034563	99.562394
1634.159836	108.765045
1634.285124	147.918509
1634.410426	212.126653
1634.535743	251.282490
1634.661074	268.257762
1634.786419	304.502890
1634.911779	341.970449
1635.037153	368.126930
1635.162542	355.593690
1635.287945	348.971264
1635.413362	259.783402
1635.538794	152.902970
1635.664241	83.864328
1635.789701	73.698854
1635.915177	77.718364
1636.040666	75.204131
1636.166170	51.674133
1636.291689	53.721300
1636.417222	121.062757
1636.542769	197.508906
1636.668331	241.636277
1636.793908	269.324480
1636.919498	232.812808
1637.045104	181.436658
1637.170723	105.950876
1637.296357	35.489844
1637.422006	48.032548
1637.547669	37.106667
1637.673347	40.107475
1637.799039	56.270487
1637.924745	76.806166
1638.050466	117.286210
1638.176202	151.320409
1638.301952	140.696328
1638.427716	132.391114
1638.553495	118.501474
1638.679288	83.767805
1638.805096	70.070878
1638.930918	63.169719
1639.056755	75.660327
1639.182607	89.265328
1639.308472	89.942672
1639.434353	89.042028
1639.560248	108.561494
1639.686157	108.878805
1639.812081	93.629317
1639.938019	82.257236
1640.063972	56.022499
1640.189939	18.897332
1640.315921	10.637459
1640.441917	48.680298
1640.567928	83.169066
1640.693954	103.132604
1640.819994	100.458638
1640.946048	87.408880
1641.072117	105.087055
1641.198201	131.117435
1641.324299	127.434401
1641.450411	112.485643
1641.576538	81.370547
1641.702680	48.479892
1641.828836	47.048593
1641.955007	60.842595
1642.081192	67.816729
1642.207392	74.790296
1642.333607	74.019968
1642.459835	83.484613
1642.586079	105.493876
1642.712337	124.029340
1642.838610	119.295317
1642.964897	95.891303
1643.091198	78.309018
1643.217515	72.262535
1643.343846	68.027586
1643.470191	76.277584
1643.596551	83.614930
1643.722926	72.318168
1643.849315	57.122921
1643.975718	43.061678
1644.102137	62.470825
1644.228570	105.477365
1644.355017	169.046596
1644.481479	197.964969
1644.607956	209.889657
1644.734447	190.965187
1644.860953	187.806003
1644.987473	181.495727
1645.114008	213.310418
1645.240558	213.250500
1645.367122	189.089586
1645.493701	159.359527
1645.620294	116.356500
1645.746902	102.085179
1645.873525	130.743929
1646.000162	140.153623
1646.126814	151.203029
1646.253481	129.124172
1646.380162	112.449977
1646.506858	96.010121
1646.633568	96.142132
1646.760293	102.057190
1646.887033	143.938070
1647.013787	180.159684
1647.140556	179.492573
1647.267339	144.729573
1647.394138	93.011751
1647.520950	63.561128
1647.647778	80.548422
1647.774620	124.239813
1647.901477	150.275658
1648.028348	151.734309
1648.155234	127.582436
1648.282135	89.341078
1648.409050	59.459471
1648.535980	46.205983
1648.662925	42.881798
1648.789884	37.981858
1648.916858	38.915039
1649.043847	38.976923
1649.170850	51.452413
1649.297868	59.043304
1649.424901	50.520842
1649.551948	46.374217
1649.679011	53.934854
1649.806087	82.263063
1649.933179	102.200920
1650.060285	118.148808
1650.187406	102.346139
1650.314541	70.879422
1650.441691	40.852121
1650.568856	32.236753
1650.696036	48.806716
1650.823230	91.521087
1650.950439	115.801602
1651.077663	117.003191
1651.204901	106.028810
1651.332154	99.101068
1651.459422	86.376012
1651.586704	85.704361
1651.714002	96.816894
1651.841314	120.397389
1651.968640	129.120296
1652.095982	127.142448
1652.223338	119.488907
1652.350709	95.015146
1652.478094	74.226971
1652.605495	71.460742
1652.732910	94.690590
1652.860339	125.227048
1652.987784	169.224864
1653.115243	156.094707
1653.242717	117.890361
1653.370206	78.494061
1653.497709	80.971481
1653.625228	150.733040
1653.752761	200.640922
1653.880308	208.679946
1654.007871	157.207355
1654.135448	83.461132
1654.263040	28.697472
1654.390647	58.015252
1654.518269	68.103988
1654.645905	76.172131
1654.773556	79.252241
1654.901222	75.192701
1655.028902	62.227627
1655.156598	67.482597
1655.284308	53.984372
1655.412033	92.672990
1655.539773	97.116580
1655.667527	93.658659
1655.795297	75.750780
1655.923081	48.706313
1656.050880	34.095316
1656.178693	41.811623
1656.306522	63.381591
1656.434365	80.875286
1656.562223	89.667088
1656.690096	84.912068
1656.817984	89.045408
1656.945887	136.478342
1657.073804	205.736441
1657.201736	231.348656
1657.329683	188.920186
1657.457645	112.700833
1657.585621	31.442045
1657.713613	17.001982
1657.841619	44.398066
1657.969640	79.290710
1658.097676	165.361894
1658.225727	227.917330
1658.353792	221.109255
1658.481873	164.610799
1658.609968	96.603429
1658.738078	77.841355
1658.866203	128.458820
1658.994343	177.533344
1659.122498	175.591658
1659.250667	125.833537
1659.378851	75.011401
1659.507051	53.271155
1659.635265	69.410224
1659.763494	81.755640
1659.891737	92.119328
1660.019996	94.287150
1660.148269	88.787714
1660.276558	100.414077
1660.404861	106.685234
1660.533179	57.839117
1660.661512	39.904737
1660.789860	17.486016
1660.918223	13.561883
1661.046600	51.769133
1661.174993	97.182199
1661.303400	145.496561
1661.431823	171.429993
1661.560260	160.952996
1661.688712	117.985582
1661.817179	115.044170
1661.945661	143.130045
1662.074157	175.966256
1662.202669	176.077608
1662.331196	128.813929
1662.459737	73.148606
1662.588294	98.829331
1662.716865	145.633470
1662.845451	187.562751
1662.974052	185.134687
1663.102668	139.616790
1663.231299	63.308634
1663.359945	50.860210
1663.488606	66.853431
1663.617282	109.564039
1663.745973	133.358526
1663.874678	136.805065
1664.003399	130.313496
1664.132134	128.834037
1664.260885	126.741383
1664.389650	114.097534
1664.518430	81.430269
1664.647226	42.671269
1664.776036	22.273032
1664.904861	6.972548
1665.033701	40.498612
1665.162556	107.785423
1665.291426	177.599353
1665.420311	228.248737
1665.549211	195.648018
1665.678126	127.413239
1665.807056	105.401200
1665.936001	92.830835
1666.064961	119.582456
1666.193936	136.913631
1666.322925	167.749228
1666.451930	201.308012
1666.580950	201.484074
1666.709985	162.626831
1666.839034	93.796490
1666.968099	58.651001
1667.097179	51.379217
1667.226273	72.654666
1667.355383	96.897164
1667.484508	148.993797
1667.613648	200.516363
1667.742802	234.984864
1667.871972	203.076861
1668.001157	201.314684
1668.130356	208.080195
1668.259571	239.264805
1668.388801	241.244158
1668.518046	223.464413
1668.647305	226.435608
1668.776580	212.710808
1668.905870	249.036632
1669.035175	288.433403
1669.164495	294.911769
1669.293830	251.259410
1669.423179	171.353261
1669.552544	107.217779
1669.681924	68.596091
1669.811320	58.256129
1669.940730	82.906628
1670.070155	115.235851
1670.199595	138.002339
1670.329050	157.633588
1670.458520	160.448908
1670.588006	148.870031
1670.717506	128.721388
1670.847022	163.694641
1670.976552	213.754284
1671.106098	336.411610
1671.235658	363.492671
1671.365234	333.878602
1671.494825	260.253023
1671.624431	197.669591
1671.754052	149.460690
1671.883688	100.916714
1672.013339	103.657473
1672.143005	148.411300
1672.272686	205.226377
1672.402382	215.262546
1672.532094	208.770332
1672.661820	173.129134
1672.791562	144.181360
1672.921319	163.973997
1673.051091	312.763517
1673.180877	421.939476
1673.310679	429.770173
1673.440497	346.179464
1673.570329	237.981633
1673.700176	166.211781
1673.830039	177.001917
1673.959916	240.883395
1674.089809	255.473754
1674.219717	267.910542
1674.349639	302.080330
1674.479578	304.853513
1674.609531	296.683075
1674.739499	316.263819
1674.869482	310.913363
1674.999481	251.675706
1675.129495	220.997128
1675.259523	179.002262
1675.389567	163.026162
1675.519627	188.296114
1675.649701	262.056640
1675.779790	291.082404
1675.909895	296.443123
1676.040014	261.649733
1676.170149	316.291101
1676.300299	394.159169
1676.430465	408.535770
1676.560645	302.361520
1676.690840	245.052677
1676.821051	223.834993
1676.951277	224.283423
1677.081518	298.664031
1677.211774	304.439897
1677.342045	305.758364
1677.472332	240.003296
1677.602634	200.801094
1677.732951	198.635988
1677.863283	205.960049
1677.993630	252.979684
1678.123992	315.666795
1678.254370	440.857098
1678.384763	492.124260
1678.515171	529.097407
1678.645594	549.427288
1678.776033	523.926116
1678.906486	425.241335
1679.036955	307.883448
1679.167439	288.681253
1679.297939	308.234580
1679.428453	365.512408
1679.558983	375.877069
1679.689528	409.831412
1679.820088	471.849151
1679.950663	549.922697
1680.081254	612.958117
1680.211860	582.045518
1680.342481	493.517575
1680.473117	440.209714
1680.603769	379.446998
1680.734435	437.524102
1680.865117	464.091781
1680.995815	548.392629
1681.126527	606.829881
1681.257255	577.326962
1681.387998	611.374542
1681.518756	652.395179
1681.649529	680.177076
1681.780318	768.662187
1681.911122	762.246745
1682.041941	647.837489
1682.172776	477.604732
1682.303626	312.070506
1682.434491	212.081844
1682.565371	239.118689
1682.696267	278.447576
1682.827178	432.070017
1682.958104	663.853221
1683.089045	925.919896
1683.220002	986.194253
1683.350974	902.115507
1683.481961	600.994981
1683.612964	295.956002
1683.743982	154.601323
1683.875015	158.580185
1684.006063	194.817712
1684.137127	212.247259
1684.268206	162.469600
1684.399301	103.856398
1684.530410	53.320972
1684.661535	33.649568
1684.792675	68.023769
1684.923831	147.020423
1685.055002	190.977831
1685.186188	194.715755
1685.317390	128.823456
1685.448607	58.758325
1685.579839	8.051546
1685.711086	23.632889
1685.842349	50.698571
1685.973627	83.361197
1686.104921	106.813486
1686.236230	108.034655
1686.367554	87.041465
1686.498894	78.741599
1686.630249	99.291883
1686.761619	117.602534
1686.893004	126.916822
1687.024405	110.490487
1687.155822	75.641196
1687.287253	61.108308
1687.418700	78.194262
1687.550163	97.043030
1687.681640	104.610758
1687.813133	114.263686
1687.944642	121.683222
1688.076166	102.651294
1688.207705	111.344254
1688.339260	107.118784
1688.470830	126.502015
1688.602415	122.843661
1688.734016	115.953445
1688.865632	86.084300
1688.997263	59.903466
1689.128910	47.727009
1689.260572	90.033906
1689.392250	123.543388
1689.523943	162.435044
1689.655652	180.287820
1689.787375	180.406649
1689.919115	166.072108
1690.050869	147.965671
1690.182640	134.869313
1690.314425	86.031226
1690.446226	40.880026
1690.578042	39.271921
1690.709874	87.196337
1690.841721	126.230921
1690.973584	172.758721
1691.105462	183.240763
1691.237355	155.538408
1691.369264	124.659658
1691.501189	119.210535
1691.633128	108.477105
1691.765083	102.113325
1691.897054	99.958020
1692.029040	73.728250
1692.161042	63.663233
1692.293059	58.841066
1692.425091	57.723202
1692.557139	94.359170
1692.689202	135.723731
1692.821281	139.343649
1692.953375	106.256774
1693.085485	53.694697
1693.217610	17.403769
1693.349751	67.831975
1693.481907	126.743130
1693.614078	187.336883
1693.746265	145.944091
1693.878468	120.044474
1694.010686	124.324152
1694.142919	144.474044
1694.275168	186.367704
1694.407433	195.575107
1694.539713	210.703586
1694.672008	176.630709
1694.804319	149.764531
1694.936646	120.092026
1695.068988	141.606125
1695.201345	166.638722
1695.333718	156.872217
1695.466106	102.437947
1695.598510	77.147232
1695.730930	70.368952
1695.863365	71.598559
1695.995815	84.781995
1696.128281	88.698596
1696.260763	86.911796
1696.393260	93.438031
1696.525772	119.009155
1696.658300	163.231741
1696.790844	205.526288
1696.923403	222.542560
1697.055978	224.193747
1697.188568	219.557609
1697.321174	191.944447
1697.453795	180.796274
1697.586432	182.639157
1697.719084	159.926773
1697.851752	163.852591
1697.984436	168.177521
1698.117135	156.348465
1698.249849	122.007971
1698.382580	98.440493
1698.515325	110.584037
1698.648087	152.900280
1698.780863	187.226447
1698.913656	169.245976
1699.046464	123.837594
1699.179287	100.619498
1699.312127	74.208639
1699.444981	82.629377
1699.577852	126.432791
1699.710738	147.885396
1699.843639	159.569588
1699.976556	140.299177
1700.109489	127.933130
1700.242437	137.672058
1700.375401	143.146598
1700.508380	162.187635
1700.641375	188.343448
1700.774386	210.268077
1700.907412	194.025828
1701.040454	159.487915
1701.173511	150.392373
1701.306585	162.001511
1701.439673	173.371026
1701.572778	176.648187
1701.705897	146.511191
1701.839033	90.993757
1701.972184	54.422696
1702.105351	71.237274
1702.238533	104.982732
1702.371731	113.861638
1702.504945	116.086585
1702.638174	136.039773
1702.771419	167.627164
1702.904680	201.161801
1703.037956	257.064313
1703.171248	292.743690
1703.304556	238.953066
1703.437879	168.811888
1703.571218	125.357763
1703.704572	102.496970
1703.837943	115.645948
1703.971328	126.730859
1704.104730	115.944044
1704.238147	112.046221
1704.371580	118.865019
1704.505028	130.629872
1704.638493	156.285193
1704.771972	159.186719
1704.905468	118.746092
1705.038979	93.419382
1705.172506	134.655706
1705.306049	193.992250
1705.439607	222.389325
1705.573181	244.107419
1705.706771	240.498550
1705.840376	207.887805
1705.973997	194.743859
1706.107634	159.724983
1706.241286	128.153132
1706.374954	135.490620
1706.508638	127.823756
1706.642338	129.450482
1706.776053	119.288456
1706.909784	110.048383
1707.043531	105.768302
1707.177293	124.737975
1707.311072	139.887985
1707.444865	144.836575
1707.578675	134.712564
1707.712500	129.085775
1707.846341	113.464214
1707.980198	130.534975
1708.114071	190.209957
1708.247959	214.973964
1708.381863	168.898386
1708.515783	88.827619
1708.649719	38.785949
1708.783670	21.733180
1708.917637	32.174836
1709.051620	38.576725
1709.185618	52.205438
1709.319633	69.292588
1709.453663	77.797689
1709.587708	70.315468
1709.721770	89.746512
1709.855847	146.344021
1709.989941	189.825170
1710.124049	212.640788
1710.258174	203.490102
1710.392315	176.485952
1710.526471	132.591937
1710.660643	110.578917
1710.794831	106.344837
1710.929034	97.709271
1711.063254	96.442762
1711.197489	77.570827
1711.331740	80.663958
1711.466007	71.700818
1711.600289	70.602262
1711.734588	79.221976
1711.868902	113.087027
1712.003232	145.113156
1712.137578	200.475614
1712.271940	192.796119
1712.406317	182.981696
1712.540710	178.106986
1712.675120	172.896851
1712.809544	138.749949
1712.943985	138.602551
1713.078442	156.661211
1713.212914	213.110549
1713.347403	229.597013
1713.481907	215.682438
1713.616427	173.467125
1713.750962	130.885518
1713.885514	85.917305
1714.020081	64.170528
1714.154665	45.466658
1714.289264	46.805696
1714.423879	55.610789
1714.558510	72.258509
1714.693157	118.533635
1714.827819	159.394250
1714.962498	174.476632
1715.097192	162.251429
1715.231902	159.603053
1715.366628	135.846535
1715.501370	135.905949
1715.636128	164.679512
1715.770902	188.152827
1715.905691	194.196506
1716.040497	178.757506
1716.175318	156.339691
1716.310155	147.375868
1716.445008	159.360090
1716.579877	158.190376
1716.714762	178.875846
1716.849663	185.604282
1716.984580	188.982900
1717.119513	227.868575
1717.254461	220.703120
1717.389426	156.405551
1717.524406	109.282873
1717.659402	84.522993
1717.794414	140.879489
1717.929442	260.563084
1718.064487	328.074017
1718.199546	325.211967
1718.334622	290.755937
1718.469714	218.035942
1718.604822	185.704899
1718.739946	184.043936
1718.875085	172.990134
1719.010241	169.365755
1719.145412	167.301851
1719.280600	136.413334
1719.415803	114.438536
1719.551022	147.919728
1719.686258	181.289250
1719.821509	231.792278
1719.956776	272.981279
1720.092059	241.022298
1720.227358	169.535512
1720.362673	165.890137
1720.498004	217.948236
1720.633351	293.453565
1720.768714	310.000644
1720.904093	236.933097
1721.039488	162.218268
1721.174899	149.220482
1721.310326	187.999637
1721.445769	249.723099
1721.581228	327.202292
1721.716703	341.054073
1721.852194	311.818883
1721.987700	348.320990
1722.123223	368.124527
1722.258762	333.314134
1722.394317	247.010287
1722.529888	188.124676
1722.665475	195.486698
1722.801078	254.149901
1722.936696	326.805380
1723.072331	364.262314
1723.207982	398.219128
1723.343649	438.986464
1723.479332	402.573970
1723.615031	409.934967
1723.750746	462.022686
1723.886477	426.757093
1724.022224	340.857982
1724.157987	301.831115
1724.293766	292.464652
1724.429562	280.085559
1724.565373	246.606380
1724.701200	226.223313
1724.837043	226.202560
1724.972903	261.267769
1725.108778	282.880011
1725.244670	335.069607
1725.380577	395.210079
1725.516501	455.199297
1725.652440	439.625295
1725.788396	440.392748
1725.924368	439.569489
1726.060356	397.172912
1726.196360	386.449487
1726.332380	385.824910
1726.468416	442.861898
1726.604468	433.528901
1726.740536	386.386252
1726.876620	314.413479
1727.012721	302.765482
1727.148837	305.741712
1727.284970	430.076001
1727.421119	507.554145
1727.557283	547.365896
1727.693464	486.619195
1727.829661	394.706896
1727.965874	364.730558
1728.102104	368.896548
1728.238349	336.777623
1728.374610	285.511371
1728.510888	263.332483
1728.647181	316.286230
1728.783491	409.314579
1728.919817	523.860398
1729.056159	623.024968
1729.192517	634.033302
1729.328892	621.596313
1729.465282	576.404404
1729.601689	647.825349
1729.738111	662.710632
1729.874550	537.619630
1730.011005	439.982200
1730.147476	462.569277
1730.283964	540.217127
1730.420467	703.262601
1730.556987	741.320571
1730.693522	816.908367
1730.830074	967.527649
1730.966642	1060.477201
1731.103226	1132.907526
1731.239827	1124.751423
1731.376443	1025.139381
1731.513076	1080.820787
1731.649725	1188.062646
1731.786390	1302.615634
1731.923071	1440.486503
1732.059769	1435.119091
1732.196483	1406.342941
1732.333212	1432.033924
1732.469958	1462.426295
1732.606721	1607.817506
1732.743499	1589.021046
1732.880294	1261.507774
1733.017104	986.568964
1733.153931	696.838362
1733.290774	591.544769
1733.427634	657.990354
1733.564510	823.712818
1733.701401	1087.740518
1733.838309	1533.566628
1733.975234	2032.129011
1734.112174	2392.814138
1734.249131	2487.652829
1734.386104	1990.030787
1734.523093	1157.128319
1734.660098	447.314268
1734.797120	117.660509
1734.934158	48.309306
1735.071212	31.012257
1735.208282	54.671345
1735.345369	50.805299
1735.482472	73.626444
1735.619591	89.839073
1735.756726	143.884820
1735.893878	173.050332
1736.031045	182.951619
1736.168230	200.302585
1736.305430	211.381610
1736.442647	160.834461
1736.579879	149.113832
1736.717129	136.290729
1736.854394	142.120071
1736.991676	151.351290
1737.128974	144.261916
1737.266288	190.512014
1737.403618	228.782155
1737.540965	277.346800
1737.678328	243.199420
1737.815708	211.968414
1737.953104	129.060667
1738.090516	73.379204
1738.227944	52.387013
1738.365388	108.513781
1738.502849	179.159849
1738.640326	248.475968
1738.777820	296.172617
1738.915330	284.505631
1739.052856	207.880154
1739.190398	152.785037
1739.327957	76.423178
1739.465532	35.899507
1739.603124	52.478617
1739.740731	67.899615
1739.878355	81.540051
1740.015996	98.808636
1740.153652	111.638313
1740.291326	122.943709
1740.429015	157.567892
1740.566721	194.594858
1740.704443	193.690455
1740.842181	195.883451
1740.979936	199.602890
1741.117707	183.042842
1741.255495	143.861491
1741.393298	114.178585
1741.531119	107.062602
1741.668955	67.838224
1741.806808	78.608709
1741.944677	96.143263
1742.082563	133.904144
1742.220465	164.254850
1742.358384	163.955441
1742.496318	171.533440
1742.634269	220.014580
1742.772237	219.740397
1742.910221	187.338861
1743.048221	139.401032
1743.186238	103.750494
1743.324271	74.428677
1743.462321	75.787729
1743.600387	69.876549
1743.738469	58.648879
1743.876568	64.508918
1744.014683	94.563252
1744.152814	133.890147
1744.290962	159.666763
1744.429126	175.896900
1744.567307	167.369827
1744.705504	164.318437
1744.843718	169.249793
1744.981948	151.366000
1745.120194	132.432219
1745.258457	102.527141
1745.396737	102.471646
1745.535032	173.372565
1745.673345	236.146709
1745.811673	238.318014
1745.950018	219.707984
1746.088380	184.722204
1746.226758	155.119764
1746.365152	141.624374
1746.503563	139.694706
1746.641990	144.506453
1746.780434	139.354124
1746.918894	144.193638
1747.057371	168.467361
1747.195864	202.499573
1747.334374	250.214908
1747.472900	283.358728
1747.611443	279.674124
1747.750002	251.050608
1747.888577	226.603828
1748.027169	188.690751
1748.165778	158.038621
1748.304403	140.310136
1748.443044	167.071403
1748.581702	176.425666
1748.720377	125.223512
1748.859068	83.048160
1748.997775	67.621506
1749.136499	63.227803
1749.275240	84.004827
1749.413997	104.311999
1749.552770	136.800748
1749.691560	159.249404
1749.830367	143.502030
1749.969190	146.715831
1750.108029	127.418098
1750.246885	112.146327
1750.385758	99.099336
1750.524647	75.334901
1750.663553	63.045580
1750.802475	87.858036
1750.941414	138.748803
1751.080369	217.498799
1751.219341	228.959651
1751.358329	195.691490
1751.497334	147.174184
1751.636356	112.628937
1751.775394	85.831892
1751.914448	93.006378
1752.053519	114.408241
1752.192607	145.550458
1752.331711	134.058839
1752.470832	96.273754
1752.609969	79.796359
1752.749123	101.967247
1752.888294	99.161383
1753.027481	116.463695
1753.166685	127.064902
1753.305905	118.617153
1753.445142	84.999162
1753.584395	59.973054
1753.723665	63.241680
1753.862952	113.584458
1754.002255	164.289567
1754.141575	194.244553
1754.280911	160.594280
1754.420264	99.359047
1754.559634	92.236813
1754.699020	131.738740
1754.838423	169.422214
1754.977843	196.138338
1755.117279	183.798078
1755.256731	138.687510
1755.396201	91.040088
1755.535687	99.718128
1755.675189	112.882472
1755.814708	141.053798
1755.954244	163.270811
1756.093797	162.531735
1756.233366	153.960684
1756.372951	183.283778
1756.512554	196.484538
1756.652173	196.627508
1756.791808	145.532723
1756.931461	110.214571
1757.071130	116.025360
1757.210815	132.345719
1757.350518	149.140072
1757.490237	161.967047
1757.629972	187.503519
1757.769724	204.064540
1757.909493	216.041259
1758.049279	261.417400
1758.189081	318.392384
1758.328900	317.243806
1758.468736	283.655114
1758.608588	214.988278
1758.748457	116.078845
1758.888343	43.287751
1759.028245	28.402336
1759.168164	46.920183
1759.308100	89.683032
1759.448053	156.392386
1759.588022	204.311778
1759.728008	215.820128
1759.868010	218.564299
1760.008029	185.670288
1760.148065	150.774037
1760.288118	181.819893
1760.428188	185.585721
1760.568274	185.662763
1760.708377	142.001631
1760.848496	165.817663
1760.988632	198.021092
1761.128786	236.792886
1761.268955	246.997087
1761.409142	218.991563
1761.549345	191.699135
1761.689565	170.785965
1761.829802	140.684674
1761.970055	141.079064
1762.110325	177.525802
1762.250612	226.436512
1762.390916	283.241690
1762.531237	237.240686
1762.671574	170.673370
1762.811928	104.117417
1762.952299	95.616056
1763.092686	97.099582
1763.233091	150.722365
1763.373512	184.463292
1763.513950	215.815645
1763.654404	198.132392
1763.794876	163.110198
1763.935364	128.022219
1764.075869	149.316225
1764.216391	175.226813
1764.356929	182.063463
1764.497484	180.731295
1764.638057	159.457706
1764.778646	127.739810
1764.919251	144.726776
1765.059874	153.002070
1765.200513	195.914731
1765.341169	174.691211
1765.481842	140.296715
1765.622532	109.821852
1765.763239	117.713439
1765.903962	115.577454
1766.044703	115.386960
1766.185460	135.308083
1766.326234	147.090200
1766.467024	113.846393
1766.607832	123.586883
1766.748656	128.767740
1766.889498	154.164886
1767.030356	168.735793
1767.171231	167.583761
1767.312122	141.606521
1767.453031	136.705782
1767.593957	91.165510
1767.734899	110.929656
1767.875858	108.391113
1768.016834	146.632187
1768.157827	197.435741
1768.298837	260.066287
1768.439864	323.330767
1768.580907	293.152620
1768.721968	249.942134
1768.863045	231.778480
1769.004139	217.540101
1769.145250	218.065531
1769.286378	167.325087
1769.427523	133.513002
1769.568685	115.627176
1769.709863	141.166367
1769.851059	213.449046
1769.992271	256.674290
1770.133501	311.076720
1770.274747	306.744176
1770.416010	249.808663
1770.557290	216.208281
1770.698587	180.658612
1770.839901	188.142138
1770.981231	207.386439
1771.122579	225.610858
1771.263944	201.806380
1771.405325	234.354486
1771.546724	315.887641
1771.688139	361.987494
1771.829571	377.815616
1771.971021	325.137454
1772.112487	196.942492
1772.253970	167.180458
1772.395470	192.029283
1772.536987	240.541410
1772.678521	286.039320
1772.820072	338.488281
1772.961640	344.035841
1773.103225	281.040562
1773.244827	194.002884
1773.386446	160.440617
1773.528081	170.725282
1773.669734	247.104984
1773.811404	316.350095
1773.953090	295.978888
1774.094794	268.949888
1774.236515	252.644853
1774.378252	241.295041
1774.520007	220.636055
1774.661778	211.945810
1774.803567	226.965928
1774.945373	238.683678
1775.087195	213.866600
1775.229035	201.505696
1775.370891	190.740105
1775.512765	153.227858
1775.654655	130.797039
1775.796563	137.881615
1775.938487	234.836066
1776.080429	352.416299
1776.222388	432.201551
1776.364363	422.438616
1776.506356	343.733081
1776.648366	245.147915
1776.790392	197.311988
1776.932436	184.875608
1777.074497	283.952457
1777.216575	420.549473
1777.358670	575.603331
1777.500782	717.153319
1777.642910	653.289504
1777.785056	502.639690
1777.927220	331.511295
1778.069400	264.593015
1778.211597	260.869570
1778.353811	299.053545
1778.496042	405.352584
1778.638291	518.645402
1778.780556	606.169860
1778.922838	649.853672
1779.065138	547.715830
1779.207455	442.289218
1779.349788	406.368605
1779.492139	475.774767
1779.634507	546.648901
1779.776892	549.610770
1779.919294	527.613586
1780.061713	511.075170
1780.204149	468.594695
1780.346603	526.988525
1780.489073	567.451631
1780.631561	524.953646
1780.774065	536.539129
1780.916587	608.703390
1781.059126	490.222107
1781.201682	400.911356
1781.344255	386.309454
1781.486845	402.768273
1781.629452	360.877767
1781.772077	357.596969
1781.914718	476.452634
1782.057377	631.069488
1782.200053	637.546700
1782.342746	551.142653
1782.485456	465.084758
1782.628183	443.385745
1782.770927	518.245865
1782.913689	739.528472
1783.056468	873.415090
1783.199263	864.604242
1783.342076	756.104411
1783.484907	730.196556
1783.627754	722.588912
1783.770618	700.101342
1783.913500	724.801305
1784.056399	704.785119
1784.199315	746.343977
1784.342248	860.479634
1784.485198	903.190230
1784.628166	905.768947
1784.771150	1022.417570
1784.914152	1211.929136
1785.057171	1356.695644
1785.200208	1368.152591
1785.343261	1342.076925
1785.486332	1246.143778
1785.629419	1162.512482
1785.772524	1248.934780
1785.915647	1444.339406
1786.058786	1728.934904
1786.201943	2132.573043
1786.345117	2506.377103
1786.488308	2669.352860
1786.631516	2659.993790
1786.774742	2382.414270
1786.917984	2066.774431
1787.061244	1776.191005
1787.204521	1530.507365
1787.347816	1108.484257
1787.491127	888.916608
1787.634456	1017.208321
1787.777803	1511.039618
1787.921166	2200.256191
1788.064547	3099.696335
1788.207944	4074.616020
1788.351360	4953.033401
1788.494792	5168.021822
1788.638242	4282.211283
1788.781708	2616.276893
1788.925193	1157.020088
1789.068694	315.694101
1789.212213	67.163654
1789.355749	39.167616
1789.499302	53.110812
1789.642872	47.798593
1789.786460	42.791636
1789.930065	80.699761
1790.073688	151.362472
1790.217327	205.306330
1790.360984	279.363224
1790.504658	310.138038
1790.648350	250.086070
1790.792059	160.635088
1790.935785	102.819480
1791.079528	86.847129
1791.223289	74.009863
1791.367067	125.527398
1791.510862	189.450364
1791.654675	224.416073
1791.798505	265.555739
1791.942352	291.859130
1792.086217	290.024986
1792.230099	254.671059
1792.373998	230.861283
1792.517915	173.429228
1792.661849	173.232361
1792.805800	194.357362
1792.949768	214.488088
1793.093754	249.756097
1793.237758	236.979330
1793.381778	200.416316
1793.525816	185.287293
1793.669872	155.161772
1793.813944	154.020995
1793.958034	173.677241
1794.102142	163.613653
1794.246267	122.232738
1794.390409	81.830900
1794.534568	67.877649
1794.678745	92.753915
1794.822940	161.256848
1794.967151	195.420813
1795.111380	188.803265
1795.255627	147.398513
1795.399890	83.075515
1795.544172	94.182025
1795.688470	116.438746
1795.832786	107.323909
1795.977120	119.042524
1796.121470	133.547678
1796.265839	217.639298
1796.410224	305.413653
1796.554627	348.959035
1796.699048	331.706793
1796.843486	235.561573
1796.987941	156.436541
1797.132413	140.378703
1797.276904	131.676957
1797.421411	162.887019
1797.565936	166.132457
1797.710478	184.722390
1797.855038	198.951498
1797.999616	203.468886
1798.144210	263.375399
1798.288822	298.386403
1798.433452	335.200047
1798.578099	291.664182
1798.722763	233.272728
1798.867445	174.634294
1799.012145	145.963114
1799.156862	145.789416
1799.301596	178.162715
1799.446348	268.770320
1799.591117	361.280842
1799.735904	429.759317
1799.880708	429.152337
1800.025530	388.901660
1800.170369	297.560406
1800.315225	235.682169
1800.460100	209.871023
1800.604991	212.916076
1800.749900	211.779701
1800.894827	244.615418
1801.039771	216.200662
1801.184733	178.676790
1801.329712	166.175643
1801.474708	201.450130
1801.619722	256.755544
1801.764754	273.406589
1801.909803	207.082261
1802.054870	226.010461
1802.199954	252.986300
1802.345056	286.260687
1802.490175	272.684366
1802.635312	237.436878
1802.780466	181.386395
1802.925638	155.890400
1803.070827	135.072376
1803.216034	141.088433
1803.361258	183.805643
1803.506500	275.565200
1803.651760	296.056149
1803.797037	302.098564
1803.942332	274.224989
1804.087644	194.376390
1804.232973	144.165184
1804.378321	103.818829
1804.523686	114.683694
1804.669068	124.156612
1804.814468	203.786129
1804.959886	287.524741
1805.105321	317.785314
1805.250773	281.509644
1805.396244	171.782428
1805.541732	91.139608
1805.687237	106.510353
1805.832760	198.603550
1805.978301	291.975299
1806.123859	311.239253
1806.269435	315.375034
1806.415028	267.047084
1806.560639	230.887100
1806.706268	212.090729
1806.851914	174.031618
1806.997578	142.619267
1807.143260	150.633534
1807.288959	191.785285
1807.434676	164.303696
1807.580410	161.750545
1807.726162	166.475489
1807.871932	134.391730
1808.017719	124.005344
1808.163524	134.868441
1808.309346	138.466786
1808.455186	187.131635
1808.601044	204.511551
1808.746920	176.731405
1808.892813	97.840553
1809.038724	117.717608
1809.184652	197.781329
1809.330598	294.999226
1809.476562	315.895532
1809.622543	258.841206
1809.768542	191.238669
1809.914559	172.682908
1810.060593	191.885298
1810.206645	204.698543
1810.352715	188.613111
1810.498803	195.306088
1810.644908	217.503616
1810.791031	256.374471
1810.937171	290.368149
1811.083329	284.918558
1811.229505	220.024307
1811.375699	151.596373
1811.521910	104.595193
1811.668139	117.104044
1811.814386	152.036021
1811.960650	175.340838
1812.106932	175.980780
1812.253232	167.442631
1812.399550	176.039910
1812.545885	142.238470
1812.692238	163.435625
1812.838609	180.539934
1812.984997	135.109841
1813.131403	106.015153
1813.277827	81.817539
1813.424269	77.328066
1813.570728	58.132580
1813.717205	27.499247
1813.863700	36.078776
1814.010213	65.603964
1814.156743	80.090765
1814.303291	72.287904
1814.449857	94.296917
1814.596441	86.065440
1814.743042	132.956537
1814.889661	168.959204
1815.036298	224.717538
1815.182953	214.311699
1815.329626	225.718464
1815.476316	235.280699
1815.623024	214.772294
1815.769750	234.843995
1815.916493	180.305745
1816.063255	132.127600
1816.210034	60.412900
1816.356831	19.743436
1816.503646	82.916513
1816.650479	204.984888
1816.797329	246.796538
1816.944197	198.167845
1817.091083	116.739714
1817.237987	42.329315
1817.384909	37.601047
1817.531848	42.474755
1817.678806	32.866210
1817.825781	62.906654
1817.972774	66.184162
1818.119784	75.462720
1818.266813	94.374042
1818.413859	121.055585
1818.560924	165.577481
1818.708006	154.972535
1818.855106	119.499181
1819.002224	70.443021
1819.149359	16.995343
1819.296513	0.169961
1819.443684	3.517953
1819.590873	60.722896
1819.738081	115.804923
1819.885306	162.309938
1820.032548	191.121186
1820.179809	182.188358
1820.327088	135.789693
1820.474384	100.629973
1820.621698	73.795750
1820.769031	109.504655
1820.916381	122.501749
1821.063749	156.471836
1821.211135	164.036781
1821.358538	152.747403
1821.505960	106.783921
1821.653400	73.437821
1821.800857	51.643058
1821.948332	49.106807
1822.095826	71.681592
1822.243337	61.539887
1822.390866	78.401177
1822.538413	107.076959
1822.685978	146.399431
1822.833561	147.677849
1822.981162	129.763968
1823.128780	146.774664
1823.276417	194.563624
1823.424072	257.245961
1823.571744	250.155455
1823.719435	208.556163
1823.867143	203.147786
1824.014869	197.651456
1824.162614	163.946058
1824.310376	99.726292
1824.458156	59.096355
1824.605954	62.892380
1824.753770	153.382391
1824.901604	258.561535
1825.049457	280.708708
1825.197327	204.603206
1825.345215	117.848427
1825.493121	28.482228
1825.641044	49.613265
1825.788986	153.668666
1825.936946	262.267586
1826.084924	294.395440
1826.232920	224.998410
1826.380934	114.969740
1826.528966	35.528249
1826.677016	29.523403
1826.825084	81.594484
1826.973169	113.552972
1827.121273	124.367748
1827.269395	87.920665
1827.417535	59.815791
1827.565693	16.116603
1827.713869	0.162072
1827.862063	11.228958
1828.010275	70.875901
1828.158505	159.121736
1828.306753	178.706987
1828.455019	175.981131
1828.603303	150.646961
1828.751605	152.970864
1828.899926	166.766916
1829.048264	231.375284
1829.196620	242.097385
1829.344994	187.738134
1829.493387	188.042414
1829.641797	200.308437
1829.790226	212.763847
1829.938672	166.295362
1830.087137	140.786275
1830.235620	146.616164
1830.384120	218.050642
1830.532639	252.018494
1830.681176	248.373341
1830.829731	223.844533
1830.978304	242.692906
1831.126895	238.857643
1831.275505	237.046532
1831.424132	204.305800
1831.572778	250.075387
1831.721441	315.588728
1831.870123	351.997084
1832.018822	290.601934
1832.167540	255.702042
1832.316276	227.051393
1832.465030	184.216024
1832.613803	140.602265
1832.762593	81.535979
1832.911401	69.313696
1833.060228	114.781170
1833.209073	197.107775
1833.357935	341.946182
1833.506816	401.327156
1833.655715	362.804500
1833.804633	243.522795
1833.953568	117.073778
1834.102522	78.981537
1834.251493	144.130305
1834.400483	191.930462
1834.549491	220.125662
1834.698517	270.856810
1834.847561	298.888312
1834.996624	312.903165
1835.145704	408.419526
1835.294803	516.725531
1835.443920	521.818769
1835.593055	510.994015
1835.742209	400.547940
1835.891380	342.919463
1836.040570	308.313046
1836.189778	403.222827
1836.339004	358.664461
1836.488248	354.085165
1836.637510	382.140067
1836.786791	539.868889
1836.936090	743.548558
1837.085407	796.438069
1837.234742	596.837164
1837.384095	409.531203
1837.533467	324.444723
1837.682857	305.071998
1837.832265	366.566318
1837.981691	509.442127
1838.131136	629.792793
1838.280599	533.135242
1838.430080	381.658290
1838.579579	233.503207
1838.729096	243.429806
1838.878632	399.200510
1839.028186	557.809503
1839.177758	576.964503
1839.327349	493.668482
1839.476957	378.174928
1839.626584	390.201075
1839.776229	544.231996
1839.925893	655.807485
1840.075575	770.185673
1840.225275	829.171168
1840.374993	779.008839
1840.524729	718.893308
1840.674484	658.628457
1840.824257	569.686201
1840.974049	522.675770
1841.123858	525.331068
1841.273686	674.972057
1841.423532	832.740899
1841.573397	844.257507
1841.723280	865.586331
1841.873181	843.827481
1842.023100	1000.856029
1842.173038	1372.387734
1842.322994	1678.824737
1842.472968	1645.827761
1842.622961	1445.672029
1842.772972	1281.269261
1842.923001	1277.886836
1843.073049	1522.908781
1843.223115	2066.866326
1843.373199	2527.594383
1843.523302	2870.839595
1843.673423	2868.201394
1843.823562	2847.404574
1843.973720	2944.703220
1844.123896	3108.890624
1844.274090	3451.907899
1844.424302	3765.454766
1844.574533	3748.928707
1844.724783	3091.205319
1844.875051	2291.810956
1845.025337	1562.822215
1845.175641	1566.388113
1845.325964	2355.319465
1845.476305	3590.487329
1845.626665	5350.512189
1845.777043	7002.697624
1845.927439	8340.915543
1846.077854	9053.871504
1846.228287	8211.526834
1846.378738	5977.443119
1846.529208	3158.318043
1846.679696	1016.032963
1846.830203	150.044978
1846.980728	0.760934
1847.131271	0.000000
1847.281833	0.000000
1847.432414	0.000000
1847.583012	0.000000
1847.733629	0.000000
1847.884265	28.346662
1848.034919	38.050002
1848.185591	72.265677
1848.336282	90.077534
1848.486991	81.899764
1848.637719	61.831840
1848.788465	64.030476
1848.939229	87.104793
1849.090012	63.835596
1849.240814	27.472196
1849.391634	0.276678
1849.542472	18.261978
1849.693329	52.120532
1849.844204	98.318865
1849.995098	143.199128
1850.146010	161.337095
1850.296940	95.242837
1850.447890	45.819092
1850.598857	5.033186
1850.749843	37.667294
1850.900848	66.579709
1851.051871	78.164875
1851.202912	65.810995
1851.353972	46.644676
1851.505051	78.421182
1851.656148	140.029214
1851.807263	185.731998
1851.958397	178.246409
1852.109549	134.091544
1852.260720	55.139820
1852.411910	44.289966
1852.563118	62.970129
1852.714344	106.601511
1852.865589	117.173080
1853.016853	121.054454
1853.168135	122.842234
1853.319436	111.286266
1853.470755	71.090863
1853.622092	51.634652
1853.773448	94.506923
1853.924823	135.485531
1854.076216	173.506420
1854.227628	168.882991
1854.379059	136.917217
1854.530508	79.996989
1854.681975	83.376917
1854.833461	116.577482
1854.984966	190.626994
1855.136489	252.252818
1855.288030	281.337995
1855.439591	204.085406
1855.591170	119.849693
1855.742767	45.643572
1855.894383	22.551760
1856.046018	50.746965
1856.197671	71.288640
1856.349343	61.792846
1856.501033	44.010527
1856.652742	29.116901
1856.804469	0.292134
1856.956216	0.000000
1857.107980	24.017838
1857.259764	39.079086
1857.411566	44.631086
1857.563386	50.966081
1857.715225	68.044559
1857.867083	98.462601
1858.018960	89.259896
1858.170855	63.962625
1858.322768	65.919456
1858.474701	70.828107
1858.626652	58.553505
1858.778621	100.681461
1858.930609	111.414387
1859.082616	84.259937
1859.234642	53.910277
1859.386686	49.723853
1859.538749	89.279804
1859.690830	128.504199
1859.842930	193.738979
1859.995049	218.103639
1860.147187	200.154532
1860.299343	116.143126
1860.451517	73.482994
1860.603711	86.089599
1860.755923	123.070843
1860.908154	115.817393
1861.060403	92.525958
1861.212671	61.067233
1861.364958	67.094152
1861.517264	98.768175
1861.669588	109.483603
1861.821931	97.948043
1861.974293	72.065368
1862.126673	44.258356
1862.279072	40.156846
1862.431490	28.160411
1862.583926	9.396575
1862.736382	0.092555
1862.888855	27.490944
1863.041348	64.380091
1863.193859	99.242073
1863.346390	100.145841
1863.498938	96.043949
1863.651506	139.855516
1863.804092	195.183804
1863.956697	178.845183
1864.109321	149.272508
1864.261963	107.985289
1864.414625	148.744901
1864.567305	213.447211
1864.720004	246.608102
1864.872721	249.550216
1865.025457	198.841598
1865.178212	176.733282
1865.330986	136.583135
1865.483779	143.011331
1865.636590	119.260740
1865.789420	123.176037
1865.942269	148.821808
1866.095137	142.102494
1866.248024	137.535983
1866.400929	141.902716
1866.553853	208.095987
1866.706796	254.856743
1866.859757	269.469485
1867.012738	203.894473
1867.165737	120.297101
1867.318755	52.738857
1867.471792	39.866922
1867.624848	54.667359
1867.777922	95.222962
1867.931016	110.368873
1868.084128	93.380498
1868.237259	66.593450
1868.390409	43.814899
1868.543578	64.106658
1868.696765	96.251737
1868.849971	113.336972
1869.003197	96.675122
1869.156441	49.682018
1869.309703	18.149238
1869.462985	36.591447
1869.616286	69.709512
1869.769605	94.849413
1869.922943	98.697177
1870.076301	80.619885
1870.229677	41.746024
1870.383072	50.885368
1870.536485	60.304240
1870.689918	113.609195
1870.843370	141.337569
1870.996840	123.040971
1871.150329	90.290567
1871.303837	65.015735
1871.457364	43.673256
1871.610910	0.438588
1871.764475	0.000000
1871.918059	0.000000
1872.071662	4.214715
1872.225283	56.951269
1872.378924	127.231404
1872.532583	196.978465
1872.686262	232.522452
1872.839959	204.815835
1872.993675	86.582230
1873.147410	60.188290
1873.301164	69.458362
1873.454937	85.761800
1873.608729	87.384615
1873.762540	92.266282
1873.916369	75.237042
1874.070218	73.283108
1874.224086	81.116491
1874.377972	87.968890
1874.531878	45.702964
1874.685802	57.112382
1874.839746	66.854846
1874.993708	60.164903
1875.147690	38.174403
1875.301690	24.489217
1875.455709	0.245784
1875.609748	24.081530
1875.763805	87.536509
1875.917881	122.759067
1876.071977	108.611997
1876.226091	58.783680
1876.380224	22.933817
1876.534376	10.381337
1876.688547	81.964685
1876.842738	187.454741
1876.996947	246.194839
1877.151175	205.402835
1877.305422	160.061064
1877.459689	116.285453
1877.613974	99.895341
1877.768278	91.177260
1877.922602	60.196256
1878.076944	16.077738
1878.231305	19.694511
1878.385686	53.729823
1878.540085	78.686540
1878.694504	110.632413
1878.848941	119.637437
1879.003398	95.586936
1879.157873	88.477315
1879.312368	65.372916
1879.466882	62.548724
1879.621414	38.445620
1879.775966	42.330905
1879.930537	33.478708
1880.085127	42.928292
1880.239736	60.638317
1880.394364	109.408124
1880.549011	129.527224
1880.703678	114.804363
1880.858363	97.102687
1881.013067	100.010259
1881.167791	126.704241
1881.322533	211.279765
1881.477295	269.236997
1881.632076	275.141869
1881.786876	203.485687
1881.941695	147.871424
1882.096533	102.515112
1882.251390	80.687214
1882.406266	48.376007
1882.561162	68.967522
1882.716076	76.881537
1882.871010	101.736216
1883.025963	116.726932
1883.180935	98.795581
1883.335926	86.489929
1883.490936	79.177995
1883.645965	93.567638
1883.801014	117.640295
1883.956082	189.502391
1884.111168	251.698799
1884.266274	264.795726
1884.421399	225.016407
1884.576544	149.402620
1884.731707	79.904553
1884.886889	61.990751
1885.042091	61.581514
1885.197312	141.158780
1885.352552	199.001466
1885.507811	199.916521
1885.663090	177.883036
1885.818387	134.452118
1885.973704	172.540858
1886.129040	201.360915
1886.284395	198.595565
1886.439770	194.126070
1886.595163	140.264990
1886.750576	152.894855
1886.906008	172.947914
1887.061459	159.683517
1887.216930	191.710404
1887.372419	194.217184
1887.527928	144.114441
1887.683456	77.313130
1887.839003	11.795871
1887.994570	0.113090
1888.150156	9.208699
1888.305761	30.713423
1888.461385	49.252584
1888.617028	68.615903
1888.772691	116.062505
1888.928373	162.706443
1889.084074	197.719511
1889.239794	202.553714
1889.395534	164.441534
1889.551293	115.422639
1889.707071	75.036445
1889.862869	34.263283
1890.018685	35.462281
1890.174521	113.233088
1890.330377	224.494490
1890.486251	320.383296
1890.642145	293.137123
1890.798058	185.730804
1890.953990	79.153752
1891.109942	49.421960
1891.265913	42.998469
1891.421903	67.765256
1891.577913	89.404468
1891.733942	126.272635
1891.889990	188.140921
1892.046058	202.734965
1892.202144	225.578266
1892.358250	217.610981
1892.514376	190.507277
1892.670521	185.663168
1892.826685	169.396293
1892.982868	174.137069
1893.139071	184.771694
1893.295293	194.372441
1893.451534	216.238849
1893.607795	228.480997
1893.764075	282.529540
1893.920375	347.980542
1894.076694	331.042904
1894.233032	276.747207
1894.389389	215.194767
1894.545766	182.001400
1894.702162	154.735501
1894.858578	172.765476
1895.015013	208.106044
1895.171467	260.888388
1895.327941	238.537872
1895.484434	290.424754
1895.640947	424.550247
1895.797479	387.536776
1895.954030	190.312215
1896.110601	70.912295
1896.267191	85.277842
1896.423800	165.686762
1896.580429	239.469286
1896.737077	359.776075
1896.893745	484.359422
1897.050432	475.243446
1897.207138	420.209294
1897.363864	336.950385
1897.520610	319.221312
1897.677374	356.081142
1897.834159	471.627373
1897.990962	575.598868
1898.147785	635.358867
1898.304628	605.964735
1898.461490	480.808332
1898.618371	465.578498
1898.775272	427.314318
1898.932192	449.735907
1899.089132	435.626474
1899.246091	512.533772
1899.403070	534.930861
1899.560068	571.390865
1899.717085	561.517520
1899.874122	496.140096
1900.031179	328.386466
1900.188255	212.745641
1900.345350	251.841505
1900.502465	340.427953
1900.659600	372.767487
1900.816754	296.457729
1900.973927	115.915457
1901.131120	123.821248
1901.288332	221.671216
1901.445564	396.227450
1901.602816	528.739760
1901.760087	577.801577
1901.917377	634.200844
1902.074687	594.210682
1902.232017	666.703845
1902.389366	826.847770
1902.546734	1042.076465
1902.704122	1095.635642
1902.861530	1134.872102
1903.018957	1101.488030
1903.176403	1163.993963
1903.333870	1146.685416
1903.491355	1284.165996
1903.648861	1379.553001
1903.806385	1386.765143
1903.963930	1419.361764
1904.121494	1680.098306
1904.279077	1904.896045
1904.436680	2004.966999
1904.594303	2030.848878
1904.751945	2017.416709
1904.909607	2289.496336
1905.067288	2991.964120
1905.224989	3660.364117
1905.382710	4328.895256
1905.540450	4799.634383
1905.698209	4898.223264
1905.855989	4768.891196
1906.013787	4201.873452
1906.171606	3290.872849
1906.329444	2281.910367
1906.487302	1630.677611
1906.645179	1644.195512
1906.803076	2675.392941
1906.960992	4786.977458
1907.118928	7796.686513
1907.276884	11263.933377
1907.434860	13853.698249
1907.592855	15310.904454
1907.750869	13974.696522
1907.908903	10116.235434
1908.066957	5460.222147
1908.225031	1680.530663
1908.383124	86.474399
1908.541237	0.000000
1908.699369	0.000000
1908.857522	0.000000
1909.015693	0.000000
1909.173885	0.000000
1909.332096	28.422128
1909.490327	59.847406
1909.648577	46.252886
1909.806847	36.343032
1909.965137	28.081046
1910.123447	33.977428
1910.281776	59.815299
1910.440125	66.949753
1910.598493	98.884967
1910.756881	122.420675
1910.915289	83.506518
1911.073717	96.475996
1911.232164	108.456086
1911.390631	117.670488
1911.549118	117.505902
1911.707625	136.927595
1911.866151	221.852612
1912.024697	294.188565
1912.183262	257.328942
1912.341848	199.703363
1912.500453	144.372286
1912.659077	124.725693
1912.817722	145.554280
1912.976386	190.342120
1913.135070	238.534730
1913.293774	217.494110
1913.452498	142.110395
1913.611241	83.312963
1913.770004	34.183152
1913.928787	11.352980
1914.087589	16.577165
1914.246412	29.505850
1914.405254	39.847273
1914.564115	45.043181
1914.722997	58.500253
1914.881899	84.045124
1915.040820	140.400071
1915.199761	193.352300
1915.358721	223.057260
1915.517702	202.925717
1915.676702	164.450677
1915.835722	131.051392
1915.994762	113.031097
1916.153822	87.869855
1916.312902	64.884835
1916.472001	55.089492
1916.631120	80.483154
1916.790259	127.244683
1916.949418	143.128844
1917.108597	146.388646
1917.267795	132.158515
1917.427014	131.230036
1917.586252	102.241187
1917.745510	47.379576
1917.904787	26.528095
1918.064085	56.102038
1918.223403	94.706883
1918.382740	90.800809
1918.542097	62.252754
1918.701474	60.393639
1918.860871	56.713645
1919.020288	78.475449
1919.179725	143.043898
1919.339181	162.920563
1919.498658	148.185463
1919.658154	128.474292
1919.817670	112.504450
1919.977206	147.419197
1920.136762	183.753495
1920.296338	163.383890
1920.455934	147.241544
1920.615549	152.293931
1920.775185	172.378078
1920.934840	122.955167
1921.094515	52.773638
1921.254211	9.315773
1921.413926	8.288326
1921.573661	20.314224
1921.733416	50.200370
1921.893191	74.502984
1922.052986	105.678899
1922.212800	152.580258
1922.372635	173.369572
1922.532490	143.238267
1922.692364	113.554364
1922.852259	90.758349
1923.012173	119.156823
1923.172108	143.021533
1923.332062	183.778955
1923.492036	219.935848
1923.652031	171.203485
1923.812045	128.300852
1923.972079	95.567086
1924.132133	107.343491
1924.292207	125.863678
1924.452302	125.675079
1924.612416	89.478458
1924.772550	53.114960
1924.932704	82.481458
1925.092878	115.396569
1925.253072	156.398113
1925.413286	158.936635
1925.573520	167.928648
1925.733774	132.035557
1925.894048	126.902233
1926.054342	116.763373
1926.214656	84.658124
1926.374990	37.143074
1926.535345	32.402212
1926.695719	76.974370
1926.856113	118.607894
1927.016527	102.108905
1927.176961	139.837388
1927.337416	166.123301
1927.497890	199.545525
1927.658384	237.974987
1927.818899	233.389934
1927.979433	167.052443
1928.139988	132.013354
1928.300562	79.456318
1928.461157	117.197912
1928.621772	154.393857
1928.782406	183.332404
1928.943061	159.017523
1929.103736	155.367789
1929.264431	111.501918
1929.425146	119.396914
1929.585881	179.450594
1929.746636	249.248883
1929.907412	264.208862
1930.068207	211.428030
1930.229023	136.705367
1930.389858	103.808548
1930.550714	73.856957
1930.711590	72.661876
1930.872486	82.607392
1931.033402	91.745623
1931.194338	120.197097
1931.355294	103.416999
1931.516270	95.551022
1931.677267	58.294302
1931.838284	48.811550
1931.999320	57.468169
1932.160377	108.774058
1932.321454	136.878491
1932.482552	115.852638
1932.643669	114.698535
1932.804806	134.428978
1932.965964	148.661242
1933.127142	148.612462
1933.288340	94.514292
1933.449558	23.712257
1933.610796	0.229518
1933.772055	22.654836
1933.933333	67.895897
1934.094632	141.503294
1934.255951	207.189995
1934.417290	180.020234
1934.578650	140.926938
1934.740029	111.583067
1934.901429	36.535615
1935.062849	20.776424
1935.224289	0.611453
1935.385750	21.516369
1935.547230	56.035515
1935.708731	79.618652
1935.870252	127.406508
1936.031793	128.761169
1936.193355	103.643826
1936.354936	88.451656
1936.516538	97.893399
1936.678160	68.993698
1936.839803	122.812768
1937.001465	134.468314
1937.163148	134.808690
1937.324851	107.537219
1937.486574	72.017443
1937.648318	66.222463
1937.810082	123.441399
1937.971866	220.845066
1938.133670	300.911677
1938.295495	294.975512
1938.457340	171.805823
1938.619205	101.735623
1938.781090	77.727361
1938.942996	86.141243
1939.104922	73.380291
1939.266868	95.315042
1939.428835	94.788043
1939.590822	89.884205
1939.752829	67.149989
1939.914856	25.552715
1940.076904	0.731716
1940.238972	21.678527
1940.401060	46.889904
1940.563169	94.975441
1940.725298	167.749349
1940.887447	179.788415
1941.049617	164.300319
1941.211807	132.707853
1941.374017	81.831102
1941.536248	66.825750
1941.698499	129.492761
1941.860770	223.944889
1942.023062	283.851839
1942.185374	293.742902
1942.347706	209.121676
1942.510059	132.002713
1942.672432	88.565045
1942.834825	60.759025
1942.997239	53.397727
1943.159673	86.928124
1943.322127	85.848125
1943.484602	85.025226
1943.647098	98.010843
1943.809613	99.172177
1943.972149	116.882913
1944.134706	113.785155
1944.297282	78.896597
1944.459880	71.880939
1944.622497	72.217332
1944.785135	61.090108
1944.947793	33.613677
1945.110472	96.681412
1945.273171	110.894452
1945.435891	118.076681
1945.598631	92.915465
1945.761392	34.646528
1945.924172	0.991921
1946.086974	48.530120
1946.249796	97.961983
1946.412638	146.760549
1946.575500	185.128714
1946.738383	193.184282
1946.901287	187.519415
1947.064211	212.706357
1947.227155	179.355957
1947.390120	140.955892
1947.553105	107.705710
1947.716111	99.251000
1947.879137	137.929425
1948.042184	186.731781
1948.205251	166.366093
1948.368339	155.139644
1948.531447	152.044573
1948.694576	184.851644
1948.857725	202.958319
1949.020894	206.176220
1949.184085	157.866629
1949.347295	116.697040
1949.510526	118.611733
1949.673778	138.526860
1949.837050	202.653402
1950.000343	240.460041
1950.163656	244.370255
1950.326989	228.860430
1950.490343	216.973634
1950.653718	204.264002
1950.817113	141.467823
1950.980529	68.916042
1951.143965	71.660914
1951.307422	138.379904
1951.470900	246.488052
1951.634397	287.232602
1951.797916	269.063951
1951.961455	288.863195
1952.125014	211.006772
1952.288595	146.706741
1952.452195	100.631029
1952.615817	62.626667
1952.779458	95.282196
1952.943121	154.695932
1953.106804	175.858486
1953.270507	198.535793
1953.434231	199.255208
1953.597976	184.086085
1953.761741	193.647864
1953.925527	199.746265
1954.089334	191.448645
1954.253161	201.547046
1954.417008	216.049587
1954.580877	247.415269
1954.744766	256.046688
1954.908675	251.257166
1955.072605	259.103668
1955.236556	243.585211
1955.400527	304.657414
1955.564519	262.995319
1955.728532	199.954104
1955.892565	144.432489
1956.056619	152.768978
1956.220694	160.822910
1956.384789	215.055429
1956.548905	235.846234
1956.713041	257.404556
1956.877199	296.909065
1957.041376	306.711719
1957.205575	222.590494
1957.369794	182.864457
1957.534034	175.662767
1957.698294	229.193496
1957.862575	318.931010
1958.026877	380.773852
1958.191200	390.318648
1958.355543	304.916668
1958.519907	244.139332
1958.684291	214.295113
1958.848697	206.197753
1959.013123	236.663503
1959.177569	274.230861
1959.342037	308.046459
1959.506525	287.249053
1959.671034	253.663687
1959.835563	177.256111
1960.000114	149.103256
1960.164685	261.189151
1960.329276	378.735121
1960.493889	514.505456
1960.658522	613.801488
1960.823176	621.228061
1960.987850	492.105808
1961.152546	358.341437
1961.317262	216.383843
1961.481999	186.369229
1961.646757	264.510137
1961.811535	438.333855
1961.976334	616.736487
1962.141154	621.149928
1962.305995	497.722632
1962.470856	310.463369
1962.635739	220.670893
1962.800642	292.179359
1962.965566	380.661055
1963.130510	397.580361
1963.295476	335.452093
1963.460462	224.033400
1963.625469	266.012417
1963.790497	348.078283
1963.955545	384.030654
1964.120615	380.230748
1964.285705	360.747037
1964.450816	374.700294
1964.615948	364.712243
1964.781100	299.607485
1964.946274	230.770260
1965.111468	170.279599
1965.276684	175.817426
1965.441920	303.497140
1965.607176	408.952896
1965.772454	499.510780
1965.937753	479.250127
1966.103072	399.701546
1966.268412	376.550555
1966.433773	476.138794
1966.599155	672.343865
1966.764558	701.852948
1966.929982	573.281492
1967.095426	494.617676
1967.260892	511.952722
1967.426378	510.902613
1967.591885	426.487397
1967.757414	420.196850
1967.922963	526.251838
1968.088532	594.390075
1968.254123	636.557327
1968.419735	784.887642
1968.585367	1139.930821
1968.751021	1291.092253
1968.916695	1214.242933
1969.082391	1007.810483
1969.248107	895.125782
1969.413844	871.294441
1969.579602	1113.473031
1969.745381	1404.214332
1969.911181	1465.375560
1970.077002	1276.902152
1970.242844	1342.888039
1970.408706	1898.110912
1970.574590	2509.170298
1970.740495	3179.853039
1970.906420	4203.218727
1971.072367	5215.785535
1971.238334	5895.163919
1971.404323	6490.835526
1971.570332	6717.352735
1971.736363	6181.003274
1971.902414	4689.521666
1972.068486	3102.269553
1972.234580	2173.163780
1972.400694	2418.077293
1972.566829	4368.276858
1972.732986	7973.552539
1972.899163	12610.401269
1973.065361	16897.128986
1973.231580	19251.588415
1973.397821	19662.712769
1973.564082	15725.727949
1973.730364	9861.683322
1973.896668	4293.743897
1974.062992	729.031721
1974.229337	13.924872
1974.395704	0.000000
1974.562091	0.000000
1974.728500	0.000000
1974.894929	0.000000
1975.061380	0.000000
1975.227851	0.000000
1975.394344	0.000000
1975.560858	9.206459
1975.727392	79.865439
1975.893948	178.843801
1976.060525	178.440318
1976.227123	113.266296
1976.393742	58.574463
1976.560382	64.128531
1976.727043	82.790213
1976.893725	65.525405
1977.060429	57.103563
1977.227153	55.595450
1977.393899	65.131318
1977.560665	75.192692
1977.727453	88.122346
1977.894262	110.285132
1978.061092	151.850549
1978.227943	167.747187
1978.394815	193.523432
1978.561708	180.767513
1978.728622	139.489426
1978.895558	107.689650
1979.062514	124.965201
1979.229492	149.215814
1979.396491	172.759033
1979.563511	162.973269
1979.730552	124.735256
1979.897614	60.630016
1980.064698	40.099489
1980.231802	44.695207
1980.398928	69.783107
1980.566075	108.036422
1980.733243	148.673573
1980.900432	174.975198
1981.067642	152.647659
1981.234874	151.303886
1981.402127	159.766619
1981.569401	147.351006
1981.736696	105.618214
1981.904012	91.920888
1982.071350	138.141862
1982.238708	174.433421
1982.406088	174.228817
1982.573489	126.190098
1982.740911	73.601955
1982.908355	17.344836
1983.075820	0.467213
1983.243305	14.059150
1983.410813	34.825955
1983.578341	43.228587
1983.745890	50.268803
1983.913461	46.461196
1984.081053	42.079490
1984.248667	42.912391
1984.416301	31.973430
1984.583957	16.394230
1984.751634	0.474012
1984.919332	0.000000
1985.087052	24.741599
1985.254792	70.754607
1985.422554	90.343221
1985.590338	111.079820
1985.758142	112.874063
1985.925968	86.376575
1986.093815	60.868297
1986.261684	33.503847
1986.429573	17.691547
1986.597484	33.629888
1986.765417	45.589678
1986.933370	45.054279
1987.101345	32.577004
1987.269341	15.780584
1987.437359	31.415084
1987.605397	51.926232
1987.773457	118.124455
1987.941539	181.717112
1988.109642	234.203435
1988.277766	252.361097
1988.445911	259.610444
1988.614078	193.613027
1988.782266	164.722342
1988.950475	71.683567
1989.118706	36.019543
1989.286958	34.702451
1989.455231	86.479127
1989.623526	125.957525
1989.791842	140.995567
1989.960180	177.673405
1990.128538	177.551979
1990.296919	182.978487
1990.465320	187.920728
1990.633743	153.580816
1990.802187	127.521726
1990.970653	127.112106
1991.139140	137.739971
1991.307649	141.766740
1991.476179	139.722094
1991.644730	107.950471
1991.813302	70.583838
1991.981897	82.074758
1992.150512	110.663417
1992.319149	126.103799
1992.487807	69.776381
1992.656487	36.743229
1992.825188	25.088080
1992.993911	80.870262
1993.162655	139.593685
1993.331420	144.323452
1993.500207	149.072241
1993.669015	102.657080
1993.837845	52.425094
1994.006696	31.570480
1994.175569	16.579816
1994.344463	0.479788
1994.513378	0.000000
1994.682315	0.000000
1994.851274	28.724754
1995.020254	64.612801
1995.189255	113.150940
1995.358278	134.143504
1995.527322	126.542194
1995.696388	93.772841
1995.865476	82.382035
1996.034584	69.129527
1996.203715	86.948646
1996.372867	172.239473
1996.542040	261.854284
1996.711235	322.176135
1996.880451	310.424653
1997.049689	244.299334
1997.218948	223.649827
1997.388229	199.883749
1997.557531	153.531981
1997.726855	101.526295
1997.896201	72.887399
1998.065568	71.167923
1998.234956	95.782986
1998.404366	83.444845
1998.573798	67.057217
1998.743251	56.110238
1998.912726	74.906366
1999.082222	119.510245
1999.251740	96.781458
1999.421279	61.479561
1999.590840	52.227543
1999.760423	66.465073
1999.930027	62.610796
2000.099653	62.293814
2000.269300	46.915409
2000.438969	18.170041
2000.608659	58.087721
2000.778371	79.140691
2000.948105	122.034990
2001.117860	157.085441
2001.287637	236.248094
2001.457435	239.327338
2001.627255	207.862881
2001.797097	109.440370
2001.966960	58.974883
2002.136845	40.689469
2002.306752	86.655145
2002.476680	140.056918
2002.646630	172.879235
2002.816601	185.316072
2002.986594	147.642596
2003.156609	102.999238
2003.326645	66.783628
2003.496703	26.337813
2003.666783	0.745195
2003.836884	0.000000
2004.007007	0.000000
2004.177152	18.911984
2004.347318	42.174920
2004.517506	66.452502
2004.687716	90.623453
2004.857947	74.860548
2005.028200	63.929213
2005.198475	39.872763
2005.368771	12.497375
2005.539089	62.157594
2005.709429	107.176042
2005.879791	133.245729
2006.050174	139.944371
2006.220579	132.170129
2006.391005	103.850690
2006.561454	135.625367
2006.731924	123.297349
2006.902416	81.014943
2007.072929	36.581807
2007.243464	22.599046
2007.414021	18.025810
2007.584600	63.010917
2007.755201	111.683725
2007.925823	126.921483
2008.096467	109.295377
2008.267133	63.467869
2008.437820	20.445706
2008.608529	11.169972
2008.779260	29.293073
2008.950013	74.124840
2009.120788	136.815790
2009.291584	165.626175
2009.462402	192.523678
2009.633242	188.481144
2009.804104	187.205101
2009.974987	156.102760
2010.145892	96.639161
2010.316819	37.732609
2010.487768	40.569711
2010.658739	43.189244
2010.829731	69.007038
2011.000746	89.139117
2011.171782	112.049423
2011.342840	92.476642
2011.513920	103.980752
2011.685021	71.337987
2011.856145	38.949294
2012.027290	5.612620
2012.198457	0.136785
2012.369646	36.367108
2012.540857	63.520269
2012.712089	98.987703
2012.883344	125.259037
2013.054620	108.115102
2013.225918	57.616857
2013.397238	34.807850
2013.568580	25.255084
2013.739944	31.381511
2013.911330	54.141382
2014.082737	49.668150
2014.254167	26.369893
2014.425618	38.371138
2014.597091	35.388084
2014.768587	38.193710
2014.940104	34.555793
2015.111643	10.280167
2015.283203	2.752941
2015.454786	24.205155
2015.626391	47.896262
2015.798017	58.459756
2015.969666	29.855235
2016.141336	14.746145
2016.313029	13.567326
2016.484743	82.433061
2016.656479	136.768883
2016.828237	135.757709
2017.000018	85.818978
2017.171820	29.565511
2017.343644	0.823397
2017.515490	0.000000
2017.687358	0.000000
2017.859247	0.000000
2018.031159	14.362268
2018.203093	28.383567
2018.375049	53.169070
2018.547027	58.647643
2018.719026	88.553199
2018.891048	121.910948
2019.063092	200.601045
2019.235158	216.827570
2019.407245	193.240084
2019.579355	148.493576
2019.751487	124.967511
2019.923640	86.955735
2020.095816	54.663310
2020.268014	50.966831
2020.440234	79.005301
2020.612476	78.446337
2020.784739	47.092098
2020.957025	38.835142
2021.129333	39.366638
2021.301663	30.447410
2021.474015	27.366462
2021.646389	22.627704
2021.818785	79.197147
2021.991203	97.512058
2022.163643	84.384667
2022.336106	77.095417
2022.508590	128.052230
2022.681096	172.275600
2022.853625	227.966265
2023.026175	188.591691
2023.198748	98.233218
2023.371342	42.932561
2023.543959	44.919858
2023.716598	61.774196
2023.889259	61.109881
2024.061942	41.084200
2024.234647	18.702606
2024.407374	10.415402
2024.580124	39.656357
2024.752895	85.636042
2024.925689	138.664880
2025.098505	150.919085
2025.271342	167.724471
2025.444202	158.060915
2025.617084	134.548011
2025.789989	134.387976
2025.962915	167.176204
2026.135863	193.505220
2026.308834	204.149108
2026.481827	180.317029
2026.654842	219.411786
2026.827879	221.105557
2027.000938	208.602967
2027.174020	192.606351
2027.347123	184.519865
2027.520249	161.824615
2027.693397	156.179189
2027.866567	132.679330
2028.039760	102.068381
2028.212974	144.481583
2028.386211	248.502062
2028.559470	283.801575
2028.732751	247.565482
2028.906054	257.362291
2029.079380	255.222603
2029.252727	264.614529
2029.426097	250.623063
2029.599489	255.207818
2029.772904	331.760577
2029.946340	426.868150
2030.119799	428.684179
2030.293280	391.902377
2030.466784	348.493260
2030.640309	306.417693
2030.813857	282.225518
2030.987427	285.791449
2031.161019	358.934618
2031.334634	399.042267
2031.508271	399.638994
2031.681930	371.305095
2031.855611	367.417001
2032.029315	333.711625
2032.203041	398.825109
2032.376789	496.407529
2032.550559	623.930907
2032.724352	647.741837
2032.898167	585.729906
2033.072004	482.058099
2033.245864	362.648692
2033.419746	285.690580
2033.593650	296.198064
2033.767577	424.669687
2033.941526	574.133068
2034.115497	631.654966
2034.289490	538.156251
2034.463506	399.021827
2034.637544	309.046762
2034.811605	310.005163
2034.985688	282.370731
2035.159793	358.785682
2035.333920	479.062078
2035.508070	605.372523
2035.682243	625.969908
2035.856437	648.625258
2036.030654	698.728352
2036.204893	730.397868
2036.379155	569.868016
2036.553439	384.693540
2036.727745	284.428644
2036.902074	216.035465
2037.076425	234.848989
2037.250799	315.456635
2037.425195	375.369571
2037.599613	325.230374
2037.774054	245.562505
2037.948517	229.861171
2038.123003	280.922364
2038.297511	383.343694
2038.472041	493.610939
2038.646594	657.595544
2038.821169	717.309758
2038.995767	700.133217
2039.170387	589.754892
2039.345029	520.847305
2039.519694	567.248590
2039.694382	766.022225
2039.869091	1024.386499
2040.043824	1120.785276
2040.218578	1027.033414
2040.393356	831.959381
2040.568155	816.963848
2040.742977	1112.498540
2040.917822	1912.879067
2041.092689	3156.014193
2041.267578	4049.315088
2041.442490	4543.924103
2041.617425	4866.509800
2041.792382	5074.335427
2041.967361	5170.637345
2042.142363	4782.851020
2042.317388	3902.939434
2042.492435	3003.180784
2042.667504	2372.740210
2042.842596	3171.865965
2043.017710	5961.762288
2043.192847	10825.339408
2043.368007	17191.884414
2043.543189	22754.550387
2043.718394	25457.842615
2043.893621	24312.494177
2044.068870	17543.781935
2044.244143	10064.298432
2044.419437	3671.180710
2044.594755	440.459393
2044.770094	0.518294
2044.945457	0.000000
2045.120842	0.000000
2045.296249	0.000000
2045.471679	0.000000
2045.647132	0.000000
2045.822607	0.000000
2045.998105	0.000000
2046.173625	37.875483
2046.349168	46.811968
2046.524734	80.044633
2046.700322	67.247594
2046.875933	27.517863
2047.051566	35.151024
2047.227222	46.166092
2047.402901	24.891302
2047.578602	18.614052
2047.754326	35.818559
2047.930072	87.425632
2048.105841	130.945268
2048.281633	122.710033
2048.457447	99.942391
2048.633284	120.790395
2048.809144	172.405888
2048.985026	143.587847
2049.160931	116.233641
2049.336858	118.051682
2049.512808	97.272065
2049.688781	86.996551
2049.864777	61.685627
2050.040795	46.256338
2050.216836	38.088513
2050.392899	68.332015
2050.568986	86.609501
2050.745095	86.537801
2050.921226	28.923188
2051.097380	10.713371
2051.273557	0.298511
2051.449757	10.975869
2051.625980	30.832896
2051.802225	43.135442
2051.978492	67.658082
2052.154783	46.365865
2052.331096	32.728572
2052.507432	24.192536
2052.683791	0.697301
2052.860172	12.998558
2053.036576	31.764367
2053.213003	46.239425
2053.389453	63.430847
2053.565925	49.157235
2053.742420	45.545380
2053.918938	91.148312
2054.095479	111.908978
2054.272042	113.670855
2054.448629	117.087319
2054.625238	98.551841
2054.801869	51.799330
2054.978524	45.662128
2055.155201	88.067469
2055.331901	111.874037
2055.508624	101.760240
2055.685370	66.026902
2055.862138	38.554161
2056.038929	44.011923
2056.215743	71.519170
2056.392580	99.816146
2056.569440	96.015567
2056.746322	88.226062
2056.923228	78.054890
2057.100156	78.852828
2057.277107	56.945235
2057.454081	26.194531
2057.631077	0.735991
2057.808097	0.000000
2057.985139	0.000000
2058.162204	0.000000
2058.339292	0.000000
2058.516403	0.000000
2058.693537	0.000000
2058.870693	12.183927
2059.047873	26.795883
2059.225075	44.510102
2059.402300	74.984748
2059.579549	98.956842
2059.756820	108.832709
2059.934113	115.368335
2060.111430	135.608678
2060.288770	128.522900
2060.466132	78.890750
2060.643518	47.555646
2060.820926	14.956030
2060.998358	0.407454
2061.175812	12.699042
2061.353289	39.831252
2061.530789	87.174030
2061.708312	142.147877
2061.885858	159.027045
2062.063427	123.281277
2062.241018	59.086530
2062.418633	21.392811
2062.596271	0.584666
2062.773931	0.000000
2062.951615	0.000000
2063.129321	0.000000
2063.307051	0.000000
2063.484803	0.453820
2063.662579	6.340963
2063.840377	28.907841
2064.018199	59.145852
2064.196043	89.653400
2064.373910	121.642523
2064.551801	106.926273
2064.729714	101.219831
2064.907650	60.943558
2065.085610	37.168792
2065.263592	16.555966
2065.441597	0.458883
2065.619626	0.000000
2065.797677	0.000000
2065.975752	0.000000
2066.153849	0.000000
2067.757763	0.000000
2067.936091	0.000000
2068.114442	0.000000
2068.292816	0.000000
2068.471213	10.543889
2068.649633	31.694706
2068.828077	55.772845
2069.006543	61.280274
2069.185032	41.430374
2069.363545	18.122550
2069.542081	0.504512
2069.720639	0.000000
2069.899221	20.532722
2070.077826	42.486804
2070.256455	62.826878
2070.435106	30.933499
2070.613780	14.358938
2070.792478	19.851919
2070.971198	38.455885
2071.149942	65.362526
2071.328709	75.137700
2071.507499	51.585349
2071.686312	44.018833
2071.865149	51.542592
2072.044008	84.042785
2072.222891	94.444199
2072.401797	91.548843
2072.580726	86.558789
2072.759678	75.276458
2072.938654	40.911345
2073.117652	20.278217
2073.296674	0.571219
2073.475719	0.000000
2073.654787	0.000000
2073.833878	0.000000
2074.012993	0.000000
2074.192131	55.878682
2074.371292	105.068657
2074.550476	134.881854
2074.729683	150.390910
2074.908914	122.842724
2075.088168	65.750136
2075.267445	39.132651
2075.446745	21.257387
2075.626068	0.599038
2075.805415	0.000000
2075.984785	0.000000
2076.164179	0.000000
2076.343595	0.000000
2076.523035	0.000000
2076.702498	28.639107
2076.881984	47.848246
2077.061494	49.937398
2077.241027	34.613947
2077.420583	15.505809
2077.600162	0.428962
2077.779765	17.625937
2077.959391	52.464886
2078.139040	72.797940
2078.318713	71.454304
2078.498409	52.500103
2078.678128	27.542221
2078.857870	0.768632
2079.037636	29.747540
2079.217425	42.634415
2079.397238	44.779417
2079.577074	36.006255
2079.756933	21.534340
2079.936815	0.608890
2080.116721	0.000000
2080.296650	0.000000
2080.476603	0.000000
2080.656579	0.000000
2080.836578	15.694298
2081.016600	72.190999
2081.196646	140.367140
2081.376715	145.205562
2081.556808	100.953187
2081.736924	45.706121
2081.917064	45.232787
2082.097226	46.564001
2082.277412	41.791607
2082.457622	56.655305
2082.637855	45.501425
2082.818111	46.845255
2082.998391	52.322648
2083.178694	64.632683
2083.359021	105.695816
2083.539371	116.314324
2083.719744	117.002246
2083.900141	94.867741
2084.080561	62.949762
2084.261005	16.941368
2084.441472	0.450378
2084.621963	7.241956
2084.802477	30.128038
2084.983014	54.589167
2085.163575	77.834543
2085.344160	58.232641
2085.524767	68.387451
2085.705399	66.287511
2085.886053	93.776098
2086.066732	96.517384
2086.247433	91.821061
2086.428159	101.263289
2086.608907	137.301698
2086.789679	147.636813
2086.970475	113.944928
2087.151294	103.831828
2087.332137	96.921584
2087.513003	106.665368
2087.693893	88.684317
2087.874806	70.293015
2088.055743	24.274758
2088.236703	0.662119
2088.417687	0.000000
2088.598694	0.000000
2088.779725	0.000000
2088.960779	23.410657
2089.141857	53.979250
2089.322958	99.700803
2089.504083	131.663772
2089.685232	147.302915
2089.866404	113.159054
2090.047600	87.017189
2090.228819	75.531325
2090.410062	68.228559
2090.591328	45.011689
2090.772618	52.698231
2090.953932	58.795482
2091.135269	53.640626
2091.316629	59.888836
2091.498014	56.701769
2091.679422	41.868313
2091.860853	25.773041
2092.042308	0.725363
2092.223787	13.800300
2092.405289	32.208145
2092.586815	43.274327
2092.768365	39.572967
2092.949938	25.430835
2093.131535	0.721504
2093.313155	0.000000
2093.494799	0.000000
2093.676467	18.497344
2093.858159	47.302041
2094.039874	85.799206
2094.221612	82.458833
2094.403375	60.820164
2094.585161	41.604260
2094.766971	36.829776
2094.948804	65.172053
2095.130661	87.616454
2095.312542	60.471423
2095.494446	97.056156
2095.676374	119.329279
2095.858326	155.022048
2096.040302	161.864700
2096.222301	135.363585
2096.404324	100.084271
2096.586370	80.940682
2096.768441	65.801668
2096.950535	62.218455
2097.132652	51.376821
2097.314794	51.111797
2097.496959	38.912827
2097.679148	32.076327
2097.861361	17.370895
2098.043597	0.486102
2098.225857	0.000000
2098.408141	21.338517
2098.590449	39.664254
2098.772781	55.646199
2098.955136	73.016049
2099.137515	60.322870
2099.319918	25.717289
2099.502344	11.209570
2099.684794	18.966035
2099.867268	36.131840
2100.049766	45.242544
2100.232288	58.280373
2100.414834	75.330442
2100.597403	97.485114
2100.779996	129.879789
2100.962613	141.535524
2101.145253	95.115918
2101.327918	53.286888
2101.510606	36.582387
2101.693318	19.672795
2101.876054	13.978948
2102.058814	47.279001
2102.241598	74.705687
2102.424405	102.175841
2102.607237	129.735409
2102.790092	110.372457
2102.972971	81.079555
2103.155874	44.258217
2103.338801	56.962401
2103.521751	99.510626
2103.704726	129.501377
2103.887724	194.619953
2104.070747	208.444389
2104.253793	184.996149
2104.436863	160.252859
2104.619957	137.054696
2104.803075	119.409394
2104.986216	59.969543
2105.169382	28.745184
2105.352571	34.533684
2105.535785	68.799618
2105.719022	66.228405
2105.902284	89.494135
2106.085569	99.775053
2106.268878	157.696374
2106.452211	257.919820
2106.635568	406.448854
2106.818949	490.167997
2107.002354	481.734257
2107.185783	387.890913
2107.369236	329.462954
2107.552712	236.898912
2107.736213	179.663416
2107.919738	185.987763
2108.103286	220.000780
2108.286859	260.462092
2108.470456	277.937067
2108.654076	309.659725
2108.837721	332.649042
2109.021389	334.791432
2109.205082	311.908157
2109.388799	255.044976
2109.572539	213.696558
2109.756304	174.996769
2109.940092	117.553933
2110.123905	138.603619
2110.307742	199.968601
2110.491602	312.642544
2110.675487	402.343418
2110.859396	421.872078
2111.043328	340.783127
2111.227285	327.912350
2111.411266	350.319535
2111.595271	430.140545
2111.779300	521.999319
2111.963353	591.508494
2112.147430	468.409309
2112.331531	294.968158
2112.515656	209.661057
2112.699806	182.666234
2112.883979	201.941120
2113.068177	264.880949
2113.252398	349.326643
2113.436644	362.505917
2113.620914	353.629685
2113.805207	356.888301
2113.989525	319.736644
2114.173867	341.782153
2114.358234	373.262898
2114.542624	384.266182
2114.727038	356.000233
2114.911477	329.352625
2115.095939	346.162695
2115.280426	384.145968
2115.464937	409.168271
2115.649472	447.865024
2115.834031	584.831928
2116.018615	711.167411
2116.203222	827.843113
2116.387854	1038.435469
2116.572510	1632.087512
2116.757190	2585.286108
2116.941894	3630.974166
2117.126622	4901.461640
2117.311375	6028.963742
2117.496152	6784.087573
2117.680953	6569.197308
2117.865778	5069.965688
2118.050627	3302.696067
2118.235501	2321.491201
2118.420398	2826.255748
2118.605320	5390.975453
2118.790266	10269.929311
2118.975237	16989.698915
2119.160231	23955.934379
2119.345250	27260.761914
2119.530293	26768.445350
2119.715360	19873.170685
2119.900452	11845.844609
2120.085568	4823.510739
2120.270708	662.817724
2120.455872	4.780580
2120.641061	0.000000
2120.826273	0.000000
2121.011510	0.000000
2121.196772	0.000000
2122.123442	0.000000
2122.308850	0.000000
2122.494281	0.000000
2122.679736	0.000000
2122.865216	15.553715
2123.050721	36.475770
2123.236249	52.589115
2123.421802	38.340249
2123.607379	5.255786
2123.792981	22.797278
2123.978607	56.777830
2124.164257	80.354741
2124.349931	88.457507
2124.535630	90.125358
2124.721354	73.583402
2124.907101	40.496017
2125.092873	87.059150
2125.278669	132.535544
2125.464490	155.048552
2125.650335	117.442170
2125.836205	46.863878
2126.022098	4.469382
2126.208017	15.513977
2126.393959	35.161906
2126.579926	55.143126
2126.765918	53.884087
2126.951933	89.719611
2127.137974	90.324149
2127.324038	73.284868
2127.510127	50.090550
2127.696241	42.565568
2127.882378	35.192760
2128.068541	42.058053
2128.254727	46.359835
2128.440939	44.414785
2128.627174	39.353157
2128.813434	33.281976
2128.999719	23.371815
2129.186028	38.392561
2129.372361	41.493194
2129.558719	70.072017
2129.745101	73.107473
2129.931508	59.386623
2130.117939	31.281508
2130.304395	17.274603
2130.490875	0.472839
2130.677380	0.000000
2130.863909	0.000000
2131.050463	0.000000
2131.237041	0.000000
2131.423644	0.000000
2131.610271	0.000000
2131.796923	25.870909
2131.983599	44.560675
2132.170300	48.893532
2132.357025	36.806879
2132.543775	18.799889
2132.730549	0.521041
2132.917348	0.000000
2133.104171	0.000000
2133.291019	0.000000
2133.477892	0.000000
2133.664789	19.251913
2133.851711	31.548408
2134.038657	38.503070
2134.225628	52.018297
2134.412623	58.143408
2134.599643	47.292845
2134.786687	73.074565
2134.973756	72.068659
2135.160850	58.580025
2135.347968	31.927168
2135.535111	20.745431
2135.722279	0.578583
2135.909471	15.079173
2136.096687	29.918066
2136.283929	39.835861
2136.471195	37.058691
2136.658485	23.016930
2136.845800	0.640142
2137.033140	28.115675
2137.220505	42.886771
2137.407894	45.797965
2137.595308	35.445610
2137.782746	19.107259
2137.970209	0.527800
2138.157697	0.000000
2138.345209	0.000000
2138.532746	0.000000
2138.720308	14.190386
2138.907894	32.471244
2139.095505	43.267686
2139.283141	37.379660
2139.470801	1.058722
2139.658487	0.000000
2139.846196	0.000000
2140.033931	0.000000
2140.221690	0.000000
2140.409474	18.950030
2140.597283	58.163705
2140.785116	87.237297
2140.972974	77.358082
2141.160857	51.465418
2141.348765	34.580115
2141.536697	31.972668
2141.724654	40.922875
2141.912636	55.567421
2142.100642	54.754947
2142.288674	33.598456
2142.476730	71.011630
2142.664811	65.080982
2142.852916	49.181441
2143.041047	34.987849
2143.229202	22.844913
2143.417382	0.633677
2143.605586	0.000000
2143.793816	17.675680
2143.982070	36.410927
2144.170349	31.943266
2144.358653	27.372437
2144.546982	30.011467
2144.735335	24.578621
2144.923714	62.398690
2145.112117	80.339270
2145.300545	67.973652
2145.488998	44.904657
2145.677475	17.248616
2145.865978	0.466258
2146.054505	0.000000
2146.243057	0.000000
2146.431634	0.000000
2146.620236	26.181071
2146.808863	32.666909
2146.997514	37.132173
2147.186191	33.479440
2147.374892	20.604563
2147.563618	0.573659
2147.752369	0.000000
2147.941145	0.000000
2148.129946	0.000000
2148.318772	0.000000
2148.507623	0.000000
2148.696498	16.398869
2148.885399	53.043567
2149.074324	88.278023
2149.263274	85.583186
2149.452249	58.367761
2149.641250	14.496780
2149.830275	26.060306
2150.019325	41.203208
2150.208400	44.346620
2150.397499	33.094295
2150.586624	28.794609
2150.775774	26.376568
2150.964949	49.532154
2151.154148	32.506910
2151.343373	20.223330
2151.532623	0.559175
2151.721897	0.000000
2151.911197	0.000000
2152.100521	24.157659
2152.289871	57.594366
2152.479246	79.587269
2152.668645	97.971983
2152.858070	116.575056
2153.047519	102.991369
2153.236994	121.337471
2153.426493	135.934708
2153.616018	110.557740
2153.805567	79.021897
2153.995142	84.407078
2154.184742	67.838487
2154.374366	95.940216
2154.564016	84.457067
2154.753691	52.471383
2154.943391	25.946480
2155.133115	33.819309
2155.322865	68.979178
2155.512640	76.858702
2155.702440	56.257923
2155.892265	37.985201
2156.082116	21.455529
2156.271991	9.788919
2156.461891	28.875831
2156.651817	67.786977
2156.841767	62.508681
2157.031743	55.099363
2157.221744	34.069246
2157.411769	18.780724
2157.601820	16.619388
2157.791896	37.606703
2157.981997	75.449154
2158.172124	67.055985
2158.362275	51.178494
2158.552452	33.221973
2158.742653	32.944562
2158.932880	29.592928
2159.123132	52.859319
2159.313409	81.994163
2159.503712	118.302726
2159.694039	142.216589
2159.884392	132.923408
2160.074769	98.355150
2160.265172	52.506111
2160.455601	1.442020
2160.646054	0.000000
2160.836532	17.939790
2161.027036	30.727563
2161.217565	36.993787
2161.408119	51.498202
2161.598698	55.443133
2161.789303	42.518146
2161.979932	43.309004
2162.170587	14.547949
2162.361267	0.387436
2162.551973	7.782201
2162.742703	79.502232
2162.933459	171.880827
2163.124240	200.266651
2163.315046	172.740700
2163.505878	114.029713
2163.696735	51.253152
2163.887617	35.916046
2164.078524	37.296687
2164.269457	49.504711
2164.460414	48.328495
2164.651398	60.576996
2164.842406	55.612950
2165.033440	42.231603
2165.224499	33.523624
2165.415583	17.834716
2165.606692	0.486879
2165.797827	0.000000
2165.988987	16.523072
2166.180173	32.392007
2166.371384	39.982146
2166.562620	33.728812
2166.753881	18.850036
2166.945168	16.043007
2167.136480	32.549804
2167.327817	46.493582
2167.519180	48.360598
2167.710568	37.536678
2167.901982	21.015578
2168.093421	0.575783
2168.284885	23.382344
2168.476374	38.197759
2168.667889	45.062551
2168.859429	39.024897
2169.050995	23.382878
2169.242586	0.642630
2169.434203	0.000000
2169.625844	23.707668
2169.817512	41.730822
2170.009204	47.077966
2170.200922	34.959721
2170.392666	15.181131
2170.584434	0.410447
2170.776229	0.000000
2170.968048	0.000000
2171.159893	0.000000
2171.351764	0.000000
2180.398447	0.000000
2180.591544	0.000000
2180.784666	0.000000
2180.977814	0.000000
2181.170987	23.557376
2181.364186	41.172777
2181.557411	77.753578
2181.750662	85.963003
2181.943938	81.166580
2182.137240	68.649830
2182.330567	58.254556
2182.523920	41.616649
2182.717299	56.293171
2182.910704	52.408300
2183.104134	46.354564
2183.297590	28.700727
2183.491072	0.789936
2183.684580	0.000000
2183.878113	0.000000
2184.071672	0.000000
2184.265256	0.000000
2184.458867	0.000000
2184.652503	0.000000
2184.846165	0.000000
2185.039852	0.000000
2185.233566	49.754319
2185.427305	100.406681
2185.621070	158.009417
2185.814861	207.730356
2186.008677	217.926571
2186.202519	186.961720
2186.396387	113.762964
2186.590281	151.852688
2186.784201	189.788540
2186.978146	185.823059
2187.172118	191.997078
2187.366115	215.754298
2187.560137	221.495627
2187.754186	240.453338
2187.948261	203.203091
2188.142361	135.144673
2188.336487	68.006899
2188.530639	88.471594
2188.724817	160.893605
2188.919020	203.844080
2189.113250	220.007605
2189.307505	166.477911
2189.501786	93.346351
2189.696094	22.848757
2189.890427	32.661604
2190.084785	60.474651
2190.279170	109.787435
2190.473581	194.204800
2190.668017	280.443479
2190.862479	302.890126
2191.056968	276.034598
2191.251482	250.747351
2191.446022	202.098361
2191.640588	133.316449
2191.835180	164.875885
2192.029797	251.692317
2192.224441	337.146818
2192.419111	274.311935
2192.613806	182.577339
2192.808528	152.891616
2193.003275	251.018841
2193.198049	361.972419
2193.392848	395.805050
2193.587673	377.662959
2193.782524	279.279480
2193.977402	291.268681
2194.172305	306.991211
2194.367234	271.021719
2194.562189	315.954688
2194.757170	422.419575
2194.952177	488.519837
2195.147210	457.526694
2195.342270	294.633898
2195.537355	111.994743
2195.732466	67.284512
2195.927603	145.003970
2196.122766	308.199476
2196.317955	405.260187
2196.513170	421.999770
2196.708411	379.567295
2196.903679	303.349136
2197.098972	223.537098
2197.294291	286.886810
2197.489636	485.376870
2197.685008	681.833661
2197.880405	1066.712348
2198.075829	1502.038286
2198.271278	2097.753061
2198.466754	2968.117625
2198.662256	4045.232390
2198.857784	5047.781688
2199.053337	5277.999327
2199.248917	4236.519142
2199.444523	2757.615122
2199.640156	1902.091271
2199.835814	2387.072179
2200.031498	5116.309761
2200.227209	10196.271403
2200.422945	17225.913434
2200.618708	24675.897511
2200.814497	27981.009622
2201.010312	27639.286835
2201.206153	20050.777063
2201.402020	11859.118462
2201.597914	4776.706635
2201.793833	585.060148
2201.989779	29.991668
2202.185751	0.000000
2202.381749	0.000000
2202.577773	0.000000
2202.773823	0.000000
2202.969900	0.000000
2203.166002	41.503578
2203.362131	65.434892
2203.558286	114.631098
2203.754468	114.858224
2203.950675	59.311448
2204.146909	41.213781
2204.343169	26.444744
2204.539455	23.219770
2204.735767	47.425213
2204.932106	48.184656
2205.128471	44.088212
2205.324862	66.539477
2205.521279	148.566496
2205.717722	189.893168
2205.914192	215.518732
2206.110688	168.388018
2206.307210	107.101405
2206.503759	79.353267
2206.700334	55.227026
2206.896935	86.246812
2207.093562	108.611013
2207.290215	103.143544
2207.486895	99.726563
2207.683602	61.906718
2207.880334	28.892684
2208.077093	35.398488
2208.273878	55.171114
2208.470689	108.246456
2208.667527	121.448777
2208.864391	92.649983
2209.061281	58.846192
2209.258198	21.204658
2209.455141	0.561847
2209.652110	0.000000
2209.849106	0.000000
2210.046128	0.000000
2210.243176	0.000000
2210.440251	0.000000
2210.637352	22.658403
2210.834479	35.086463
2211.031633	40.788131
2211.228813	36.310748
2211.426020	23.537350
2211.623253	19.239511
2211.820512	35.543407
2212.017798	44.143920
2212.215110	37.809407
2212.412448	21.235163
2212.609813	0.563315
2212.807205	0.000000
2213.004622	0.000000
2213.202067	12.705522
2213.399537	38.863146
2213.597034	84.351791
2213.794558	122.536327
2213.992108	111.867584
2214.189684	65.451121
2214.387287	32.606465
2214.584916	0.866641
2214.782572	0.000000
2214.980254	0.000000
2215.177962	0.000000
2215.375697	0.000000
2215.771247	0.000000
2215.969062	0.000000
2216.166903	0.000000
2216.364770	0.000000
2216.562664	21.565415
2216.760585	34.523265
2216.958532	38.790641
2217.156505	32.074269
2217.354505	19.260201
2217.552532	0.514117
2217.750585	0.000000
2217.948665	24.870024
2218.146771	37.742043
2218.344904	39.766688
2218.543063	30.202268
2218.741249	15.817325
2218.939461	0.418808
2219.137700	0.000000
2219.335966	0.000000
2219.534258	0.000000
2219.732577	0.000000
2219.930922	0.000000
2220.129294	0.000000
2220.327692	0.000000
2220.526117	0.000000
2220.724569	18.669184
2220.923047	30.059328
2221.121552	46.096298
2221.320083	28.105985
2221.518642	8.417159
2221.717226	0.218292
2221.915838	0.000000
2222.114476	0.000000
2222.313140	0.000000
2222.511831	0.000000
2222.710549	0.000000
2222.909294	0.000000
2223.108065	0.000000
2223.306863	0.000000
2223.505688	18.990813
2223.704539	34.762170
2223.903417	47.042958
2224.102321	49.560285
2224.301253	40.870435
2224.500210	25.662681
2224.699195	0.000000
2224.898206	0.000000
2225.097245	16.639967
2225.296309	32.119583
2225.495401	45.090516
2225.694519	47.265704
2225.893664	37.203161
2226.092836	42.105492
2226.292034	34.140016
2226.491259	37.911310
2226.690511	31.645764
2226.889789	18.834559
2227.089095	0.510383
2227.288427	0.000000
2227.487786	0.000000
2227.687172	0.000000
2227.886584	0.000000
2231.680513	0.000000
2231.880462	0.000000
2232.080438	0.000000
2232.280440	0.000000
2232.480470	16.007776
2232.680526	30.030879
2232.880610	57.452254
2233.080720	41.049871
2233.280857	18.509309
2233.481021	0.487660
2233.681212	0.000000
2233.881430	0.000000
2234.081674	0.000000
2234.281946	0.000000
2235.083302	0.000000
2235.283708	0.000000
2235.484142	0.000000
2235.684602	0.000000
2235.885089	13.143764
2236.085604	39.051203
2236.286145	56.002368
2236.486713	45.952104
2236.687308	24.947567
2236.887930	11.109668
2237.088579	0.291954
2237.289255	0.000000
2237.489959	0.000000
2237.690689	0.000000
2237.891446	0.000000
2238.092230	0.000000
2238.293041	0.000000
2238.493880	15.182812
2238.694745	40.168892
2238.895637	61.618716
2239.096556	56.774611
2239.297503	34.480684
2239.498476	11.888961
2239.699477	0.306514
2239.900504	0.000000
2240.101559	0.000000
2240.302641	0.000000
2240.503749	0.000000
2241.509700	0.000000
2241.710971	0.000000
2241.912269	0.000000
2242.113595	0.000000
2242.314948	19.884568
2242.516328	39.417505
2242.717734	50.489332
2242.919169	44.620307
2243.120630	26.463611
2243.322118	0.708010
2243.523634	0.000000
2243.725176	0.000000
2243.926746	0.000000
2244.128343	0.000000
2264.426062	0.000000
2264.630428	0.000000
2264.834821	0.000000
2265.039242	0.000000
2265.243691	23.682534
2265.448168	50.329614
2265.652672	54.198266
2265.857204	47.137446
2266.061764	29.087541
2266.266351	0.782820
2266.470966	0.000000
2266.675609	0.000000
2266.880279	0.000000
2267.084978	0.000000
2268.723562	0.000000
2268.928510	0.000000
2269.133485	0.000000
2269.338489	0.000000
2269.543520	26.077109
2269.748579	43.379517
2269.953666	49.189653
2270.158781	34.769963
2270.363923	9.828278
2270.569093	0.000000
2270.774292	0.000000
2270.979517	0.000000
2271.184771	27.094050
2271.390053	36.514760
2271.595362	58.137957
2271.800699	73.755608
2272.006064	72.643979
2272.211457	62.863250
2272.416878	57.122436
2272.622327	42.000011
2272.827803	36.762141
2273.033307	24.269545
2273.238840	0.652907
2273.444400	0.000000
2273.649988	0.000000
2273.855604	0.000000
2274.061247	0.000000
2274.266919	28.111602
2274.472619	44.634596
2274.678346	67.328004
2274.884101	76.028946
2275.089885	74.378894
2275.295696	48.737165
2275.501535	34.152314
2275.707402	0.921511
2275.913297	0.000000
2276.119220	26.229864
2276.325171	40.196583
2276.531150	45.172491
2276.737157	35.823553
2276.943192	42.889968
2277.149254	39.163723
2277.355345	65.580575
2277.561464	72.390249
2277.767610	65.691255
2277.973785	43.037205
2278.179988	27.938581
2278.386219	0.750692
2278.592477	0.000000
2278.798764	0.000000
2279.005079	0.000000
2279.211421	37.995978
2279.417792	84.242054
2279.624191	118.242918
2279.830618	118.388883
2280.037073	59.496488
2280.243555	12.990407
2280.450066	0.335266
2280.656605	0.000000
2280.863173	0.000000
2281.069768	31.758224
2281.276391	78.070083
2281.483042	118.298991
2281.689722	111.207592
2281.896429	88.832710
2282.103165	69.945298
2282.309928	47.083643
2282.516720	62.469903
2282.723540	87.798668
2282.930388	99.953237
2283.137264	87.006126
2283.344168	151.438896
2283.551100	246.019419
2283.758061	222.358116
2283.965049	194.447224
2284.172066	248.301749
2284.379111	269.506979
2284.586184	218.856825
2284.793285	126.313551
2285.000415	59.629098
2285.207572	50.304299
2285.414758	58.570914
2285.621972	141.618495
2285.829214	562.753361
2286.036484	1223.860155
2286.243782	2160.615838
2286.451109	2857.157374
2286.658464	3414.158664
2286.865847	3608.623672
2287.073258	3019.343880
2287.280698	1831.527468
2287.488165	1111.148800
2287.695661	1107.700091
2287.903185	2927.969420
2288.110738	6857.947908
2288.318318	12733.279193
2288.525927	19573.311926
2288.733564	24156.641814
2288.941230	25226.047312
2289.148924	20983.610673
2289.356646	13813.757371
2289.564396	6893.308855
2289.772174	1840.178457
2289.979981	126.590714
2290.187816	0.048751
2290.395679	0.000000
2290.603571	0.000000
2290.811491	0.000000
2291.019439	0.000000
2292.059606	0.000000
2292.267724	0.000000
2292.475871	0.000000
2292.684045	0.000000
2292.892249	18.777414
2293.100480	49.245948
2293.308741	52.375637
2293.517029	36.474625
2293.725346	18.628853
2293.933691	0.815524
2294.142064	0.000000
2294.350466	0.000000
2294.558897	18.651691
2294.767356	29.241771
2294.975843	53.524170
2295.184358	41.183585
2295.392902	21.927077
2295.601475	0.961614
2295.810076	0.000000
2296.018705	0.000000
2296.227363	0.000000
2296.436049	0.000000
2306.906739	0.000000
2307.116883	0.000000
2307.327056	0.000000
2307.537257	0.000000
2307.747487	19.566903
2307.957745	36.301214
2308.168033	67.402952
2308.378349	76.750679
2308.588694	67.740405
2308.799067	41.427562
2309.009470	23.935320
2309.219901	1.051899
2309.430361	0.000000
2309.640849	0.000000
2309.851367	0.000000
2310.061913	0.000000
2313.223564	0.000000
2313.434572	0.000000
2313.645608	0.000000
2313.856673	0.000000
2314.067768	26.816508
2314.278891	41.821911
2314.490042	47.374378
2314.701223	39.952567
2314.912433	24.193327
2315.123672	1.063220
2315.334939	0.000000
2315.546236	0.000000
2315.757561	0.000000
2315.968915	0.000000
2329.982532	0.000000
2330.195836	0.000000
2330.409170	0.000000
2330.622534	0.000000
2330.835926	21.832365
2331.049348	33.997861
2331.262800	40.462372
2331.476280	37.907403
2331.689790	26.974053
2331.903329	1.201614
2332.116898	0.000000
2332.330496	0.000000
2332.544123	0.000000
2332.757780	0.000000
2371.261456	0.000000
2371.480455	0.000000
2371.699484	0.000000
2371.918543	0.000000
2372.137632	12.893568
2372.356752	28.781047
2372.575902	47.761105
2372.795083	30.966009
2373.014294	12.737046
2373.233535	0.536486
2373.452807	16.471890
2373.672109	34.542054
2373.891441	44.600277
2374.110804	57.035805
2374.330197	59.845627
2374.549621	52.987339
2374.769075	50.413964
2374.988560	36.945004
2375.208075	21.444178
2375.427620	0.933175
2375.647196	0.000000
2375.866802	0.000000
2376.086439	0.000000
2376.306106	13.218768
2376.525804	33.094520
2376.745532	49.749390
2376.965290	37.748427
2377.185080	19.521063
2377.404899	0.840480
2377.624749	0.000000
2377.844630	0.000000
2378.064541	0.000000
2378.284482	31.364107
2378.504454	81.501554
2378.724457	112.562638
2378.944490	72.981529
2379.164554	13.094178
2379.384648	0.465936
2379.604773	0.000000
2379.824928	0.000000
2380.045114	13.196868
2380.265330	60.618378
2380.485577	169.916694
2380.705855	263.867066
2380.926163	307.067113
2381.146502	390.118949
2381.366871	703.675374
2381.587271	1200.120315
2381.807701	1652.154738
2382.028162	2024.598102
2382.248654	2056.575309
2382.469176	1443.129777
2382.689729	856.618199
2382.910313	628.265793
2383.130927	1628.665328
2383.351572	4303.446481
2383.572247	8828.132374
2383.792953	14499.795726
2384.013690	19471.271093
2384.234458	20908.151090
2384.455256	18308.415754
2384.676085	12603.034293
2384.896944	6776.863088
2385.117834	2357.177230
2385.338755	292.369482
2385.559706	0.000000
2385.780689	0.000000
2386.001702	0.000000
2386.222745	0.000000
2386.443820	0.000000
2386.664925	0.000000
2386.886061	0.000000
2387.107227	2.411101
2387.328424	39.700921
2387.549652	51.267721
2387.770911	39.376078
2387.992201	21.434542
2388.213521	0.922200
2388.434872	0.000000
2388.656254	0.000000
2388.877667	0.000000
2389.099110	0.000000
2477.633654	0.000000
2477.867552	0.000000
2478.101484	0.000000
2478.335450	0.000000
2478.569448	25.610289
2478.803479	39.881736
2479.037544	47.735390
2479.271642	43.067075
2479.505772	18.596714
2479.739936	2.699459
2479.974134	0.000000
2480.208364	0.000000
2480.442628	24.026712
2480.676924	48.820112
2480.911254	48.677554
2481.145617	29.063959
2481.380014	7.167954
2481.614443	25.095492
2481.848906	52.190166
2482.083402	95.525133
2482.317932	133.794021
2482.552494	103.370583
2482.787090	64.468067
2483.021719	42.699613
2483.256381	58.860389
2483.491077	54.246991
2483.725805	43.044962
2483.960568	20.805496
2484.195363	7.125909
2484.430192	17.802863
2484.665054	108.013802
2484.899949	306.566065
2485.134878	721.140138
2485.369839	1135.396642
2485.604835	1428.636921
2485.839863	1203.442836
2486.074925	612.410570
2486.310020	234.482349
2486.545149	439.029372
2486.780311	1845.041502
2487.015506	4653.167598
2487.250735	8592.555425
2487.485997	13012.404269
2487.721292	15427.528742
2487.956621	15339.208379
2488.191983	11713.220765
2488.427379	7198.800359
2488.662808	3261.752700
2488.898271	741.191303
2489.133766	24.927609
2489.369296	0.039765
2489.604858	0.000000
2489.840455	0.000000
2490.076084	0.000000
2490.311747	0.000000
2491.490564	0.000000
2491.726428	0.000000
2491.962326	0.000000
2492.198257	0.000000
2492.434221	15.803757
2492.670219	36.904138
2492.906250	32.947685
2493.142315	26.640662
2493.378414	17.923945
2493.614546	0.764709
2493.850711	0.000000
2494.086910	0.000000
2494.323143	0.000000
2494.559409	0.000000
2542.496011	0.000000
2542.739155	0.000000
2542.982333	0.000000
2543.225547	0.000000
2543.468796	20.404962
2543.712079	40.465069
2543.955397	54.654451
2544.198751	53.327706
2544.442139	37.895178
2544.685562	1.605441
2544.929020	0.000000
2545.172513	0.000000
2545.416041	0.000000
2545.659604	0.000000
2595.585395	0.000000
2595.836194	0.000000
2596.087029	0.000000
2596.337901	0.000000
2596.588810	10.492744
2596.839754	36.996602
2597.090735	60.787594
2597.341753	60.390171
2597.592807	82.181747
2597.843897	155.342904
2598.095024	331.931126
2598.346187	545.827151
2598.597386	678.127637
2598.848622	565.785799
2599.099894	349.965216
2599.351203	180.477375
2599.602548	433.778790
2599.853930	1869.998380
2600.105348	4627.923623
2600.356803	8261.961105
2600.608294	12012.402776
2600.859822	13094.291292
2601.111386	11348.397471
2601.362986	7667.062339
2601.614623	4069.660437
2601.866297	1505.319598
2602.118007	200.748554
2602.369754	13.935988
2602.621537	0.228571
2602.873357	0.000000
2603.125213	0.000000
2603.377106	0.000000
2603.629035	0.000000
2720.280556	0.000000
2720.549644	0.000000
2720.818772	0.000000
2721.087940	0.000000
2721.357148	22.223867
2721.626396	95.396183
2721.895684	164.086801
2722.165012	272.641068
2722.434379	362.905696
2722.703787	268.091730
2722.973235	148.719603
2723.242723	144.549255
2723.512250	911.495048
2723.781818	2741.738472
2724.051426	5533.400281
2724.321074	8506.478052
2724.590762	10258.581490
2724.860489	9516.532411
2725.130257	6854.064338
2725.400065	3989.009115
2725.669914	1741.329794
2725.939802	391.895765
2726.209730	29.466104
2726.479698	0.000000
2726.749707	0.000000
2727.019755	0.000000
2727.289844	0.000000
2856.207491	0.000000
2856.496999	0.000000
2856.786550	0.000000
2857.076145	0.000000
2857.365784	21.000097
2857.655468	77.682351
2857.945195	124.058919
2858.234966	143.557963
2858.524782	118.467673
2858.814641	30.767268
2859.104545	6.362509
2859.394493	86.830973
2859.684485	806.234748
2859.974521	2346.942988
2860.264601	4443.735438
2860.554725	6567.383707
2860.844894	7398.695217
2861.135106	6539.022069
2861.425363	4516.809231
2861.715664	2490.547058
2862.006009	982.150627
2862.296398	161.862724
2862.586832	3.158152
2862.877309	0.000000
2863.167831	20.415410
2863.458397	32.289878
2863.749008	42.733821
2864.039662	46.394242
2864.330361	39.461556
2864.621104	25.056864
2864.911892	4.767334
2865.202723	0.000000
2865.493599	0.000000
2865.784519	0.000000
2866.075484	0.000000
3006.955972	0.000000
3007.268699	0.000000
3007.581475	0.000000
3007.894301	0.000000
3008.207175	26.065915
3008.520097	40.436858
3008.833069	47.407193
3009.146089	34.257992
3009.459159	10.859862
3009.772277	62.936860
3010.085444	535.756861
3010.398660	1655.212451
3010.711925	3336.134565
3011.025238	5090.436926
3011.338601	6003.599804
3011.652013	5173.163943
3011.965473	3431.190353
3012.278982	1744.300104
3012.592541	619.689463
3012.906148	76.730827
3013.219804	43.056918
3013.533510	31.883725
3013.847264	20.571540
3014.161067	3.336582
3014.474919	0.000000
3014.788821	0.000000
3015.102771	0.000000
3015.416770	0.000000
3175.384268	0.000000
3175.723636	0.000000
3176.063059	0.000000
3176.402536	0.000000
3176.742067	5.715784
3177.081653	145.349782
3177.421293	686.501636
3177.760987	1648.579477
3178.100737	2775.590896
3178.440540	3636.210397
3178.780398	3634.086369
3179.120311	2821.800202
3179.460278	1717.700796
3179.800300	735.587884
3180.140376	177.334664
3180.480507	7.845788
3180.820692	0.000000
3181.160932	0.000000
3181.501227	0.000000
3181.841576	0.000000
3362.434227	0.000000
3362.804020	0.000000
3363.173873	0.000000
3363.543788	0.000000
3363.913764	87.082341
3364.283800	538.431703
3364.653898	1356.132033
3365.024057	2300.933433
3365.394277	2955.034259
3365.764558	2714.655151
3366.134900	1853.272666
3366.505303	958.334207
3366.875767	308.349446
3367.246293	38.534824
3367.616880	2.959389
3367.987528	0.082719
3368.358237	0.000000
3368.729007	0.000000
3369.099838	0.000000
3369.470731	0.000000
3572.173817	0.000000
3572.578745	0.000000
3572.983741	0.000000
3573.388807	0.000000
3573.793941	8.516573
3574.199144	157.039665
3574.604416	691.942813
3575.009757	1497.508130
3575.415167	2289.131352
3575.820646	2563.313963
3576.226194	2052.840684
3576.631811	1210.360216
3577.037497	501.266362
3577.443252	84.053306
3577.849076	2.239783
3578.254969	0.000000
3578.660931	0.000000
3579.066962	0.000000
3579.473063	0.000000
3810.183706	0.000000
3810.629771	0.000000
3811.075915	0.000000
3811.522137	0.000000
3811.968438	7.648795
3812.414817	164.175633
3812.861274	670.070897
3813.307810	1424.483408
3813.754424	2178.187635
3814.201117	2408.443867
3814.647888	1864.808825
3815.094738	1046.962571
3815.541666	417.626879
3815.988673	93.972936
3816.435758	3.365121
3816.882922	0.000000
3817.330165	0.000000
3817.777486	0.000000
3818.224885	0.000000
4082.180176	0.000000
4082.674850	0.000000
4083.169614	0.000000
4083.664468	0.000000
4084.159413	0.685302
4084.654447	108.703820
4085.149571	523.106864
4085.644785	1211.721328
4086.140089	1959.956662
4086.635483	2182.613272
4087.130968	1707.978381
4087.626542	975.216686
4088.122207	368.427541
4088.617962	45.468853
4089.113806	1.475724
4089.609742	0.000000
4090.105767	0.000000
4090.601883	0.000000
4091.098089	0.000000
4376.129925	0.000000
4376.678982	0.000000
4377.228143	0.000000
4377.777407	0.000000
4378.326774	17.267094
4378.876245	28.071948
4379.425820	32.772039
4379.975497	28.866310
4380.525279	18.669284
4381.075164	0.978093
4381.625152	0.000000
4382.175244	0.000000
4382.725440	0.000000
4383.275739	0.000000
4395.961280	0.000000
4396.514074	0.000000
4397.066973	0.000000
4397.619975	0.000000
4398.173082	1.474869
4398.726293	54.678635
4399.279609	396.762013
4399.833029	881.856955
4400.386554	1364.588776
4400.940183	1483.473435
4401.493916	1134.389124
4402.047754	629.261204
4402.601697	197.177266
4403.155744	16.669770
4403.709895	0.422557
4404.264152	0.000000
4404.818512	0.000000
4405.372978	0.000000
4405.927548	0.000000
4762.908303	0.000000
4763.531739	0.000000
4764.155299	0.000000
4764.778981	0.000000
4765.402785	37.126085
4766.026712	318.813718
4766.650761	652.536713
4767.274933	963.821205
4767.899227	909.715352
4768.523644	586.892130
4769.148184	239.004343
4769.772847	33.713224
4770.397632	0.987196
4771.022540	0.000000
4771.647571	0.000000
4772.272724	0.000000
4772.898001	0.000000
5195.504195	0.000000
5196.214471	0.000000
5196.924894	0.000000
5197.635462	0.000000
5198.346176	12.237952
5199.057035	60.480488
5199.768041	160.048943
5200.479192	218.192971
5201.190489	218.309675
5201.901933	161.939963
5202.613522	72.722624
5203.325257	15.427023
5204.037138	0.356843
5204.749165	0.000000
5205.461339	0.000000
5206.173658	0.000000
5206.886124	0.000000
5556.298570	0.000000
5557.084105	0.000000
5557.869808	0.000000
5558.655676	0.000000
5559.441712	12.628165
5560.227914	25.139109
5561.014283	31.476651
5561.800819	27.057479
5562.587522	15.415403
5563.374392	0.381989
5564.161429	0.000000
5564.948632	0.000000
5565.736003	0.000000
5566.523541	0.000000
5714.325569	0.000000
5715.144855	0.000000
5715.964318	0.000000
5716.783956	0.000000
5717.603771	13.462756
5718.423763	68.009762
5719.243930	103.374176
5720.064275	127.527947
5720.884795	118.183682
5721.705493	73.982728
5722.526366	30.687603
5723.347417	18.097010
5724.168644	0.479914
5724.990048	0.000000
5725.811629	0.000000
5726.633387	0.000000
5727.455322	0.000000
6015.745097	0.000000
6016.630057	0.000000
6017.515212	0.000000
6018.400562	0.000000
6019.286108	19.136447
6020.171849	33.067706
6021.057786	40.540633
6021.943918	36.462817
6022.830246	22.870268
6023.716770	0.000000
6024.603489	0.000000
6025.490405	0.000000
6026.377516	0.000000
6233.870011	0.000000
6234.803538	0.000000
6235.737274	0.000000
6236.671221	0.000000
6237.605377	49.624864
6238.539743	105.196598
6239.474319	144.639632
6240.409105	155.825964
6241.344101	198.277315
6242.279307	251.149012
6243.214724	236.253626
6244.150351	153.922219
6245.086188	40.312619
6246.022235	0.339816
6246.958493	0.000000
6247.894962	0.000000
6248.831641	0.000000
6249.768531	0.000000
6350.286495	0.000000
6351.246294	0.000000
6352.206312	0.000000
6353.166547	0.000000
6354.126999	41.628286
6355.087670	106.804010
6356.048559	152.065222
6357.009665	157.425718
6357.970989	119.698506
6358.932532	58.336788
6359.894293	1.449226
6360.856271	0.000000
6361.818469	0.000000
6362.780884	0.000000
6363.743518	0.000000
6723.974484	0.000000
6725.020241	0.000000
6726.066243	0.000000
6727.112489	0.000000
6728.158979	13.732952
6729.205713	29.217897
6730.252692	38.714921
6731.299915	34.521943
6732.347382	20.188452
6733.395094	0.435384
6734.443050	0.000000
6735.491251	0.000000
6736.539697	0.000000
6737.588388	0.000000
7143.080063	0.000000
7144.225107	0.000000
7145.370425	0.000000
7146.516019	0.000000
7147.661888	12.698761
7148.808033	53.269220
7149.954454	95.233243
7151.101151	111.724737
7152.248123	90.794139
7153.395372	49.210550
7154.542896	1.133570
7155.690697	0.000000
7156.838773	0.000000
7157.987127	0.000000
7159.135756	0.000000
7194.880858	0.000000
7196.038379	0.000000
7197.196181	0.000000
7198.354261	0.000000
7199.512621	15.126723
7200.671261	27.333883
7201.830180	34.031583
7202.989380	30.818948
7204.148859	19.869592
7205.308618	0.463130
7206.468657	0.000000
7207.628976	0.000000
7208.789576	0.000000
7209.950456	0.000000
8162.259157	0.000000
8163.657818	0.000000
8165.056839	0.000000
8166.456220	0.000000
8167.855961	14.829719
8169.256061	47.022713
8170.656522	75.346719
8172.057342	85.884201
8173.458523	71.285527
8174.860065	41.244621
8176.261967	0.835225
8177.664229	0.000000
8179.066852	0.000000
8180.469837	0.000000
8181.873182	0.000000
8390.702288	0.000000
8392.160079	0.000000
8393.618250	0.000000
8395.076802	0.000000
8396.535733	17.139439
8397.995045	28.119544
8399.454737	32.095764
8400.914810	27.243171
8402.375263	17.250614
8403.836098	0.362755
8405.297313	0.000000
8406.758910	0.000000
8408.220887	0.000000
8409.683247	0.000000
8449.311601	0.000000
8450.784694	0.000000
8452.258171	0.000000
8453.732035	0.000000
8455.206283	23.324208
8456.680918	35.224455
8458.155938	37.853026
8459.631344	29.372365
8461.107136	15.529117
8462.583315	0.322699
8464.059880	0.000000
8465.536831	0.000000
8467.014169	0.000000
8468.491893	0.000000
9522.804563	0.000000
9524.567142	0.000000
9526.330211	0.000000
9528.093770	0.000000
9529.857818	55.648956
9531.622357	119.827765
9533.387385	156.493730
9535.152904	149.579706
9536.918913	103.905144
9538.685413	31.940411
9540.452404	0.599910
9542.219886	0.000000
9543.987859	0.000000
9545.756323	0.000000
9547.525279	0.000000
9670.780904	0.000000
9672.584728	0.000000
9674.389057	0.000000
9676.193891	0.000000
9677.999230	29.661603
9679.805075	61.351384
9681.611424	82.662412
9683.418280	76.398547
9685.225641	47.209791
9687.033508	12.972047
9688.841882	0.240486
9690.650762	0.000000
9692.460148	0.000000
9694.270042	0.000000
9696.080442	0.000000
9754.282086	0.000000
9756.109324	0.000000
9757.937076	0.000000
9759.765341	0.000000
9761.594120	15.197429
9763.423413	28.360102
9765.253220	34.274966
9767.083542	28.378210
9768.914378	15.276111
9770.745730	2.413580
9772.577596	0.000000
9774.409977	0.000000
9776.242874	0.000000
9778.076287	0.000000
9803.798309	0.000000
9805.639479	0.000000
9807.481168	0.000000
9809.323375	0.000000
9811.166102	14.791727
9813.009348	30.319320
9814.853113	40.824855
9816.697398	39.248111
9818.542203	27.075734
9820.387528	12.467078
9822.233373	0.234538
9824.079739	0.000000
9825.926625	0.000000
9827.774033	0.000000
9829.621961	0.000000
10082.038925	0.000000
10083.959033	0.000000
10085.879690	0.000000
10087.800895	0.000000
10089.722650	16.658033
10091.644953	31.148323
10093.567807	57.152941
10095.491209	65.557164
10097.415162	58.088130
10099.339665	27.644305
10101.264717	16.016189
10103.190321	0.298313
10105.116475	0.000000
10107.043180	0.000000
10108.970436	0.000000
10110.898243	0.000000
10713.019436	0.000000
10715.122598	0.000000
10717.226380	0.000000
10719.330782	0.000000
10721.435803	23.527884
10723.541445	36.171659
10725.647707	38.742019
10727.754590	29.406662
10729.862093	14.835646
10731.970218	0.264412
10734.078963	0.000000
10736.188331	0.000000
10738.298320	0.000000
10740.408932	0.000000
11233.854289	0.000000
11236.112683	0.000000
11238.371758	0.000000
11240.631514	0.000000
11242.891952	17.224170
11245.153072	27.258515
11247.414874	31.129977
11249.677358	26.323298
11251.940525	15.416049
11254.204376	0.267467
11256.468909	0.000000
11258.734126	0.000000
11261.000027	0.000000
11263.266612	0.000000
11425.960018	0.000000
11428.276592	0.000000
11430.593870	0.000000
11432.911853	0.000000
11435.230541	18.993077
11437.549935	31.923356
11439.870034	36.279588
11442.190839	29.228327
11444.512351	16.036251
11446.834569	0.274600
11449.157494	0.000000
11451.481126	0.000000
11453.805466	0.000000
11456.130514	0.000000
11766.942822	0.000000
11769.363871	0.000000
11771.785666	0.000000
11774.208209	0.000000
11776.631500	0.080341
11779.055540	22.807609
11781.480327	73.796997
11783.905864	103.958341
11786.332150	95.508755
11788.759185	65.066505
11791.186970	83.509096
11793.615504	121.711245
11796.044790	199.649019
11798.474826	281.551101
11800.905612	373.166313
11803.337151	538.993097
11805.769440	720.887057
11808.202482	820.245914
11810.636276	723.283069
11813.070822	460.249828
11815.506121	243.227954
11817.942174	122.286292
11820.378980	74.280931
11822.816539	28.482979
11825.254853	0.479317
11827.693921	0.000000
11830.133744	0.000000
11832.574321	0.000000
11835.015654	0.000000
11884.001414	0.000000
11886.458681	0.000000
11888.916710	0.000000
11891.375502	0.000000
11893.835057	18.778833
11896.295375	49.013887
11898.756456	66.016003
11901.218301	84.168880
11903.680910	84.587164
11906.144284	107.551143
11908.608422	113.212070
11911.073325	92.672837
11913.538994	79.618841
11916.005429	80.254866
11918.472629	56.251078
11920.940596	34.954821
11923.409329	28.208134
11925.878830	74.726103
11928.349097	125.455812
11930.820133	91.874948
11933.291936	21.307278
11935.764507	0.339327
11938.237847	0.000000
11940.711956	0.000000
11943.186834	127.875064
11945.662482	2560.877418
11948.138899	11375.502421
11950.616087	25577.303075
11953.094045	40127.577734
11955.572773	48011.666003
11958.052273	40571.634918
11960.532545	25894.046170
11963.013588	13032.947825
11965.495403	4662.722284
11967.977990	751.600548
11970.461350	0.725865
11972.945484	0.000000
11975.430390	0.000000
11977.916070	0.000000
11980.402525	0.000000
11982.889753	0.000000
11985.377756	0.000000
11987.866534	0.000000
11990.356088	0.000000
11992.846417	12.786134
11995.337522	50.605545
11997.829403	90.095918
12000.322061	129.440983
12002.815495	122.899468
12005.309707	91.258676
12007.804696	51.790835
12010.300464	23.322008
12012.797009	0.000000
12015.294333	24.352079
12017.792436	51.432894
12020.291318	134.952842
12022.790979	199.289805
12025.291420	244.571998
12027.792641	273.052784
12030.294643	238.001884
12032.797426	147.271820
12035.300989	47.199885
12037.805334	10.444685
12040.310461	0.000000
12042.816370	0.000000
12045.323061	0.000000
12047.830535	0.000000
12115.829397	0.000000
12118.358921	0.000000
12120.889236	0.000000
12123.420344	0.000000
12125.952245	6.348646
12128.484939	155.019698
12131.018427	519.753024
12133.552709	1038.605040
12136.087785	1433.014001
12138.623655	1384.719504
12141.160321	922.542367
12143.697781	443.171182
12146.236037	107.891760
12148.775089	1.492062
12151.314938	0.000000
12153.855582	0.000000
12156.397024	0.000000
12158.939263	0.000000
12454.066121	0.000000
12456.702311	0.000000
12459.339337	0.000000
12461.977201	0.000000
12464.615903	16.865577
12467.255443	32.902662
12469.895821	42.109158
12472.537039	37.565650
12475.179095	22.467644
12477.821992	0.361294
12480.465728	0.000000
12483.110304	0.000000
12485.755721	0.000000
12488.401979	0.000000
12697.430862	0.000000
12700.144702	0.000000
12702.859413	0.000000
12705.574994	0.000000
12708.291445	20.371825
12711.008769	31.864649
12713.726963	36.211303
12716.446030	30.248253
12719.165969	17.716586
12721.886781	0.280985
12724.608466	0.000000
12727.331025	0.000000
12730.054457	0.000000
12732.778764	0.000000
13510.543474	0.000000
13513.522140	0.000000
13516.501792	0.000000
13519.482429	0.000000
13522.464052	16.518849
13525.446662	29.152850
13528.430258	38.305725
13531.414842	39.777601
13534.400414	32.296731
13537.386974	19.391212
13540.374523	0.294237
13543.363060	0.000000
13546.352587	0.000000
13549.343105	0.000000
13552.334612	0.000000
14325.972966	0.000000
14329.225343	0.000000
14332.478828	0.000000
14335.733421	0.000000
14338.989122	16.666833
14342.245933	30.535401
14345.503854	38.611439
14348.762885	35.272641
14352.023026	22.791013
14355.284279	0.332692
14358.546643	0.000000
14361.810120	0.000000
14365.074710	0.000000
14368.340412	0.000000
14374.875159	0.000000
14378.144205	0.000000
14381.414365	0.000000
14384.685642	0.000000
14387.958035	18.407033
14391.231544	30.176582
14394.506171	35.041240
14397.781916	29.446866
14401.058779	16.375277
14404.336760	0.237747
14407.615861	0.000000
14410.896082	0.000000
14414.177424	0.000000
14417.459886	0.000000
15079.618515	0.000000
15083.130900	0.000000
15086.644512	0.000000
15090.159352	0.000000
15093.675421	19.607317
15097.192718	33.884621
15100.711245	38.449917
15104.231003	30.410639
15107.751991	16.149546
15111.274210	0.226129
15114.797662	0.000000
15118.322345	0.000000
15121.848262	0.000000
15125.375413	0.000000
15353.705554	0.000000
15357.314140	0.000000
15360.923998	0.000000
15364.535129	0.000000
15368.147534	24.018447
15371.761212	35.288436
15375.376166	37.592708
15378.992395	30.830035
15382.609900	19.526450
15386.228681	0.271214
15389.848740	0.000000
15393.470076	23.386115
15397.092690	39.174311
15400.716584	45.173775
15404.341757	37.605901
15407.968210	22.040357
15411.595944	0.000000
15415.224959	0.000000
15418.855256	0.000000
15422.486836	0.000000
15661.319822	0.000000
15665.037404	0.000000
15668.756309	0.000000
15672.476539	0.000000
15676.198094	14.131850
15679.920975	30.744455
15683.645182	42.618980
15687.370716	41.216453
15691.097578	28.078420
15694.825767	15.658923
15698.555286	29.283319
15702.286135	35.545903
15706.018313	30.045668
15709.751822	17.289370
15713.486663	0.236101
15717.222835	0.000000
15720.960341	0.000000
15724.699179	0.000000
15728.439352	0.000000
15799.756926	0.000000
15803.523911	0.000000
15807.292244	0.000000
15811.061924	0.000000
15814.832953	7.041247
15818.605332	37.548758
15822.379060	96.297821
15826.154139	137.501109
15829.930569	124.654616
15833.708351	84.090743
15837.487485	28.504220
15841.267973	0.384566
15845.049814	0.000000
15848.833010	0.000000
15852.617561	0.000000
15856.403468	0.000000
16043.587248	0.000000
16047.441775	0.000000
16051.297691	0.000000
16055.154998	0.000000
16059.013695	15.306602
16062.873783	30.553501
16066.735263	41.581465
16070.598135	39.847515
16074.462401	25.858100
16078.328061	18.766485
16082.195116	35.527178
16086.063565	41.358424
16089.933411	31.770369
16093.804653	15.209515
16097.677293	0.000000
16101.551331	0.000000
16105.426767	0.000000
16109.303602	0.000000
16140.368743	0.000000
16144.258203	0.000000
16148.149069	0.000000
16152.041341	0.000000
16155.935021	24.279144
16159.830109	155.254433
16163.726606	345.402987
16167.624513	482.786449
16171.523829	463.766868
16175.424557	315.018232
16179.326696	127.031181
16183.230247	6.639278
16187.135210	1.010741
16191.041588	0.000000
16194.949380	0.000000
16198.858586	0.000000
16202.769209	0.000000
16452.022398	0.000000
16456.025059	0.000000
16460.029180	0.000000
16464.034763	0.000000
16468.041809	18.982324
16472.050317	31.299648
16476.060290	60.164691
16480.071726	65.279444
16484.084628	55.971832
16488.098996	30.047100
16492.114830	16.487677
16496.132132	0.216726
16500.150902	0.000000
16504.171141	0.000000
16508.192848	0.000000
16512.216027	5.660734
16516.240676	85.726036
16520.266796	442.259932
16524.294389	948.111709
16528.323455	1369.095056
16532.353995	1273.969299
16536.386010	832.570851
16540.419499	354.294617
16544.454465	101.740857
16548.490907	8.424435
16552.528826	0.102840
16556.568224	0.000000
16560.609100	0.000000
16564.651456	0.000000
16568.695292	0.000000
16781.032630	0.000000
16785.155965	0.000000
16789.280820	0.000000
16793.407196	0.000000
16797.535093	19.683623
16801.664512	33.306969
16805.795454	40.259728
16809.927920	36.475119
16814.061910	24.596519
16818.197425	0.000000
16822.334466	0.000000
16826.473034	0.000000
16830.613130	0.000000
16855.485820	0.000000
16859.636628	0.000000
16863.788970	0.000000
16867.942846	0.000000
16872.098257	26.047097
16876.255203	38.427626
16880.413686	40.727745
16884.573707	31.155476
16888.735265	148.630405
16892.898362	705.892559
16897.062999	1704.686658
16901.229175	2706.959168
16905.396893	3181.247478
16909.566153	2605.289914
16913.736955	1585.996331
16917.909300	687.038897
16922.083190	165.827159
16926.258624	12.674394
16930.435604	0.003124
16934.614131	0.000000
16938.794204	0.000000
16942.975825	0.000000
16947.158995	0.000000
17179.640814	0.000000
17183.911942	0.000000
17188.184664	0.000000
17192.458979	0.000000
17196.734889	26.266065
17201.012394	40.861437
17205.291495	43.784608
17209.572193	32.574100
17213.854490	15.032717
17218.138384	0.000000
17222.423878	0.000000
17226.710972	0.000000
17230.999667	0.000000
17261.065426	0.000000
17265.366957	0.000000
17269.670097	0.000000
17273.974845	0.000000
17278.281203	33.409885
17282.589172	517.456849
17286.898752	1811.800318
17291.209944	3585.785649
17295.522750	5033.177378
17299.837168	5052.387848
17304.153202	3620.665613
17308.470851	2017.730810
17312.790116	787.928033
17317.110998	198.929789
17321.433498	5.997448
17325.757616	0.000000
17330.083354	0.000000
17334.410712	0.000000
17338.739691	0.000000
17412.581138	0.000000
17416.939434	0.000000
17421.299367	0.000000
17425.660938	0.000000
17430.024146	28.651530
17434.388993	41.780555
17438.755480	43.633369
17443.123608	32.802760
17447.493377	16.171894
17451.864789	0.000000
17456.237843	0.000000
17460.612541	0.000000
17464.988885	0.000000
17597.048076	0.000000
17601.475817	0.000000
17605.905229	0.000000
17610.336314	0.000000
17614.769071	19.512501
17619.203502	34.124950
17623.639608	41.837346
17628.077390	38.600326
17632.516848	26.520180
17636.957983	0.000000
17641.400796	0.000000
17645.845288	0.000000
17650.291460	0.000000
17668.092963	0.000000
17672.547547	0.000000
17677.003816	0.000000
17681.461770	0.000000
17685.921411	0.271685
17690.382739	189.333675
17694.845756	1414.677022
17699.310462	3931.841077
17703.776857	6992.717038
17708.244944	9039.318692
17712.714722	8288.372594
17717.186193	5566.966773
17721.659357	2953.875625
17726.134216	1142.090165
17730.610770	307.279885
17735.089019	36.914260
17739.568966	0.222693
17744.050610	0.000000
17748.533952	0.000000
17753.018995	0.000000
17757.505737	0.000000
17784.461944	0.000000
17788.960613	0.000000
17793.460988	0.000000
17797.963072	0.000000
17802.466864	25.878059
17806.972366	41.389813
17811.479579	46.550949
17815.988503	38.955485
17820.499139	24.645742
17825.011489	0.000000
17829.525553	0.000000
17834.041331	0.000000
17838.558826	0.000000
17843.078037	0.000000
17847.598966	0.000000
17852.121613	0.000000
17856.645980	19.488305
17861.172066	33.694217
17865.699874	38.419959
17870.229404	29.573172
17874.760656	13.517758
17879.293632	0.000000
17883.828333	0.000000
17888.364759	0.000000
17892.902911	0.000000
17897.442791	0.000000
17901.984398	0.000000
17906.527734	0.000000
17911.072801	21.658508
17915.619598	51.141102
17920.168126	52.955081
17924.718387	46.977456
17929.270381	32.838809
17933.824109	17.471406
17938.379573	0.000000
17942.936772	0.000000
17947.495708	0.000000
17952.056382	0.000000
17993.180791	0.000000
17997.758891	0.000000
18002.338738	0.000000
18006.920334	0.000000
18011.503678	35.900108
18016.088773	62.737765
18020.675619	90.545562
18025.264217	90.060281
18029.854568	49.849725
18034.446672	12.771093
18039.040531	0.000000
18043.636146	0.000000
18048.233517	0.000000
18052.832645	0.000000
18057.433531	0.000000
18062.036177	0.000000
18066.640582	0.000000
18071.246748	25.263417
18075.854676	65.551361
18080.464367	77.434619
18085.075821	69.865474
18089.689040	65.231824
18094.304024	75.870377
18098.920774	91.650395
18103.539292	138.721768
18108.159577	139.089438
18112.781632	69.337219
18117.405456	10.199433
18122.031051	282.916466
18126.658418	1959.424671
18131.287557	5410.095332
18135.918470	9610.126410
18140.551158	12465.475729
18145.185620	11404.597436
18149.821859	7602.468665
18154.459875	4013.617944
18159.099669	1545.537336
18163.741242	409.232365
18168.384594	38.917699
18173.029728	0.000000
18177.676643	0.000000
18182.325341	0.000000
18186.975822	0.000000
18445.525789	0.000000
18450.277619	0.000000
18455.031285	0.000000
18459.786789	0.000000
18464.544131	20.801110
18469.303313	34.317218
18474.064335	40.624155
18478.827197	37.332485
18483.591902	26.543033
18488.358450	0.320514
18493.126843	0.000000
18497.897080	0.000000
18502.669163	0.000000
18507.443092	0.000000
18512.218870	0.000000
18516.996497	0.000000
18521.775973	0.000000
18526.557300	0.000000
18531.340479	21.745625
18536.125510	38.656342
18540.912395	46.852409
18545.701134	33.796048
18550.491729	0.407118
18555.284180	0.000000
18560.078489	0.000000
18564.874656	0.000000
18569.672682	2.713050
18574.472569	325.351150
18579.274317	2192.841912
18584.077927	6224.253775
18588.883400	11258.965448
18593.690737	14979.470364
18598.499940	14110.254241
18603.311008	9606.617297
18608.123944	5175.663601
18612.938748	2016.996107
18617.755420	543.584039
18622.573963	35.762693
18627.394376	0.109171
18632.216661	0.000000
18637.040820	0.000000
18641.866851	0.000000
18646.694758	0.000000
18964.577104	0.000000
18969.530924	0.000000
18974.486685	0.000000
18979.444388	0.000000
18984.404035	15.052664
18989.365626	30.108167
18994.329162	40.670420
18999.294645	58.521652
19004.262075	61.717345
19009.231454	55.047533
19014.202781	35.648820
19019.176060	26.084363
19024.151289	0.000000
19029.128471	0.000000
19034.107607	0.000000
19039.088697	0.000000
19044.071743	0.189767
19049.056745	124.006920
19054.043705	1553.179658
19059.032623	5547.592474
19064.023501	11114.394521
19069.016339	15809.307305
19074.011140	16198.355090
19079.007903	11865.213352
19084.006629	6758.701589
19089.007321	2927.172831
19094.009978	933.878039
19099.014602	121.419058
19104.021194	0.228192
19109.029755	0.000000
19114.040286	0.000000
19119.052788	0.000000
19124.067261	0.000000
19134.102129	0.000000
19139.122525	0.000000
19144.144897	0.000000
19149.169246	0.000000
19154.195573	12.482208
19159.223880	28.282465
19164.254167	41.478352
19169.286435	43.802271
19174.320685	33.910763
19179.356919	18.568157
19184.395138	0.000000
19189.435342	0.000000
19194.477532	0.000000
19199.521710	0.000000
19204.567877	0.000000
19209.616033	0.000000
19214.666180	0.000000
19219.718319	0.000000
19224.772450	25.768783
19229.828576	39.137407
19234.886696	42.048037
19239.946812	32.770094
19245.008926	17.430006
19250.073037	0.000000
19255.139148	0.000000
19260.207258	0.000000
19265.277370	0.000000
19490.359598	0.000000
19495.520866	0.000000
19500.684184	0.000000
19505.849553	0.000000
19511.016975	24.496462
19516.186451	38.257356
19521.357981	40.438855
19526.531568	29.827093
19531.707211	22.161764
19536.884912	40.023630
19542.064673	50.372261
19547.246493	34.747725
19552.430375	505.439048
19557.616320	2971.048800
19562.804327	7595.432219
19567.994400	12876.495669
19573.186538	16165.132245
19578.380743	14260.957413
19583.577015	9299.551070
19588.775357	4789.136161
19593.975769	1758.913246
19599.178252	381.788673
19604.382807	2.605748
19609.589436	0.000000
19614.798139	0.000000
19620.008917	0.000000
19625.221773	0.000000
19872.588956	0.000000
19877.902804	0.000000
19883.218783	0.000000
19888.536894	0.000000
19893.857140	16.448665
19899.179521	28.738808
19904.504038	35.864939
19909.830692	32.962996
19915.159485	21.273699
19920.490417	0.000000
19925.823491	0.000000
19931.158706	0.000000
19936.496064	0.000000
20016.814387	0.000000
20022.186191	0.000000
20027.560158	0.000000
20032.936288	0.000000
20038.314584	22.632789
20043.695046	36.128576
20049.077675	41.029020
20054.462472	52.580137
20059.849439	62.965594
20065.238577	45.879091
20070.629887	27.805262
20076.023370	10.225577
20081.419028	565.849478
20086.816861	3075.162404
20092.216870	7507.973583
20097.619058	12268.205030
20103.023424	14847.238062
20108.429971	12488.298967
20113.838699	7820.975830
20119.249610	3821.369604
20124.662704	1353.040557
20130.077983	283.082435
20135.495448	3.414388
20140.915101	0.000000
20146.336942	0.000000
20151.760972	0.000000
20157.187193	0.000000
20481.254795	0.000000
20486.814650	0.000000
20492.376770	0.000000
20497.941156	0.000000
20503.507808	19.723645
20509.076728	34.939862
20514.647917	39.396644
20520.221376	29.045627
20525.797107	12.287457
20531.375111	0.000000
20536.955389	0.000000
20542.537943	0.000000
20548.122773	0.000000
20564.890934	0.000000
20570.484883	0.000000
20576.081114	0.000000
20581.679630	0.000000
20587.280430	28.535802
20592.883517	39.199327
20598.488892	40.360696
20604.096556	56.445431
20609.706510	57.819718
20615.318755	49.609016
20620.933293	36.292786
20626.550125	5.640741
20632.169253	6.226498
20637.790677	279.920899
20643.414398	1771.712475
20649.040419	4869.337911
20654.668739	8670.699724
20660.299362	11286.328621
20665.932287	10330.973625
20671.567516	6867.833766
20677.205050	3589.822505
20682.844890	1354.883431
20688.487039	357.372075
20694.131496	21.471008
20699.778264	0.000000
20705.427343	0.000000
20711.078736	0.000000
20716.732442	0.000000
21147.449109	0.000000
21153.282446	0.000000
21159.118196	0.000000
21164.956362	0.000000
21170.796944	21.813256
21176.639945	39.550286
21182.485364	51.040160
21188.333204	49.379164
21194.183467	25.488093
21200.036152	0.000000
21205.891262	0.000000
21211.748798	0.000000
21217.608761	0.000000
21223.471153	7.060333
21229.335975	286.206404
21235.203228	1469.728054
21241.072914	3627.467490
21246.945034	5891.349242
21252.819590	7104.061283
21258.696582	5888.968925
21264.576012	3599.229069
21270.457881	1648.000400
21276.342191	510.457744
21282.228944	70.971594
21288.118140	0.689950
21294.009780	0.000000
21299.903867	0.000000
21305.800401	0.000000
21311.699384	0.000000
21828.324216	0.000000
21834.441548	0.000000
21840.561452	0.000000
21846.683928	0.000000
21852.808980	54.600657
21858.936608	452.392089
21865.066814	1390.292143
21871.199598	2518.319345
21877.334963	3303.958527
21883.472911	3040.656142
21889.613442	2008.760674
21895.756557	964.928385
21901.902259	269.828460
21908.050549	18.269688
21914.201428	0.144435
21920.354898	0.000000
21926.510960	0.000000
21932.669616	0.000000
21938.830867	0.000000
21944.994714	0.000000
21951.161159	0.000000
21957.330204	0.000000
21963.501850	0.000000
21969.676098	32.710375
21975.852950	46.106449
21982.032407	49.398220
21988.214471	41.583649
21994.399144	27.174514
22000.586426	0.284439
22006.776319	0.000000
22012.968825	0.000000
22019.163945	0.000000
22025.361681	0.000000
22491.357295	0.000000
22497.755472	0.000000
22504.156380	0.000000
22510.560020	0.000000
22516.966393	2.532220
22523.375501	136.453744
22529.787347	494.209359
22536.201930	911.993863
22542.619254	1123.328769
22549.039319	875.906423
22555.462126	498.565861
22561.887679	141.182744
22568.315978	10.470293
22574.747024	0.096694
22581.180819	0.000000
22587.617366	0.000000
22594.056665	0.000000
22600.498717	0.000000
23205.163043	0.000000
23211.868233	0.000000
23218.576330	0.000000
23225.287335	0.000000
23232.001250	78.726013
23238.718076	159.351307
23245.437816	218.464201
23252.160472	171.911407
23258.886043	103.050496
23265.614534	7.732186
23272.345944	0.067554
23279.080276	0.000000
23285.817532	0.000000
23292.557712	0.000000
23299.300820	0.000000
23953.496820	0.000000
23960.528984	0.000000
23967.564245	0.000000
23974.602605	0.000000
23981.644066	14.203846
23988.688630	25.735709
23995.736297	46.743112
24002.787071	33.729820
24009.840954	22.116064
24016.897946	0.216192
24023.958050	0.000000
24031.021267	0.000000
24038.087600	0.000000
24045.157050	0.000000
24158.693695	0.000000
24165.816420	0.000000
24172.942295	0.000000
24180.071323	0.000000
24187.203504	19.460889
24194.338842	34.041247
24201.477338	41.110394
24208.618993	35.118847
24215.763810	20.007181
24222.911791	0.193244
24230.062936	0.000000
24237.217249	0.000000
24244.374732	0.000000
24251.535385	0.000000
24894.314044	0.000000
24901.764582	0.000000
24909.218465	0.000000
24916.675696	0.000000
24924.136275	19.093717
24931.600206	62.655085
24939.067490	97.119223
24946.538130	131.647194
24954.012127	135.372579
24961.489483	109.744740
24968.970200	91.519001
24976.454281	49.501973
24983.941727	23.212548
24991.432541	6.659235
24998.926724	0.061664
25006.424278	0.000000
25013.925206	0.000000
25021.429509	0.000000
25028.937190	0.000000
26226.725553	0.000000
26234.782231	0.000000
26242.842621	0.000000
26250.906726	0.000000
26258.974549	27.331185
26267.046092	42.138914
26275.121356	45.493159
26283.200346	34.607182
26291.283062	17.106678
26299.369507	0.153493
26307.459683	0.000000
26315.553593	0.000000
26323.651239	0.000000
26331.752623	0.000000
27950.477914	0.000000
27959.341854	0.000000
27968.210011	0.000000
27977.082388	0.000000
27985.958988	20.334876
27994.839812	36.561587
28003.724865	46.790940
28012.614148	43.270824
28021.507664	27.356433
28030.405417	0.232383
28039.307408	0.000000
28048.213640	0.000000
28057.124117	0.000000
28066.038840	0.000000
28335.468733	0.000000
28344.516454	0.000000
28353.568510	0.000000
28362.624902	0.000000
28371.685635	28.199995
28380.750710	37.092392
28389.820130	40.215452
28398.893898	36.367598
28407.972017	26.563692
28417.054489	0.222284
28426.141318	0.000000
28435.232506	0.000000
28444.328057	0.000000
28453.427971	0.000000
28811.759167	0.000000
28821.035987	0.000000
28830.317288	0.000000
28839.603073	0.000000
28848.893345	28.283010
28858.188106	40.130585
28867.487361	64.295818
28876.791110	68.143698
28886.099359	69.258554
28895.412109	29.893615
28904.729363	13.368916
28914.051124	0.108942
28923.377395	0.000000
28932.708180	0.000000
28942.043480	0.000000
28951.383299	0.000000
31478.533779	0.000000
31489.128042	0.000000
31499.727653	0.000000
31510.332618	0.000000
31520.942938	17.259176
31531.558619	34.359551
31542.179664	43.366051
31552.806075	37.721926
31563.437858	21.880719
31574.075015	0.164416
31584.717550	0.000000
31595.365467	0.000000
31606.018770	0.000000
31616.677461	0.000000
31809.459581	0.000000
31820.221358	0.000000
31830.988597	0.000000
31841.761301	0.000000
31852.539476	17.120253
31863.323123	35.000918
31874.112248	47.519506
31884.906854	46.314283
31895.706944	32.272432
31906.512523	0.242253
31917.323593	0.000000
31928.140159	0.000000
31938.962225	0.000000
31949.789793	0.000000
32431.708081	0.000000
32442.787201	0.000000
32453.872000	0.000000
32464.962480	0.000000
32476.058647	23.305643
32487.160503	38.358177
32498.268053	46.080338
32509.381300	45.443214
32520.500249	52.654906
32531.624903	47.100379
32542.755267	47.708008
32553.891344	22.723856
32565.033137	0.166298
32576.180652	0.000000
32587.333892	0.000000
32598.492860	0.000000
32609.657562	0.000000
34027.915164	0.000000
34039.822268	0.000000
34051.735623	0.000000
34063.655233	0.000000
34075.581102	22.051148
34087.513236	38.064565
34099.451638	43.680595
34111.396313	34.838209
34123.347265	18.468139
34135.304499	0.128914
34147.268018	0.000000
34159.237829	0.000000
34171.213934	0.000000
34183.196338	0.000000
34387.865290	0.000000
34399.961840	0.000000
34412.064774	0.000000
34424.174096	0.000000
34436.289811	20.869146
34448.411924	58.470886
34460.540438	90.719965
34472.675359	96.173546
34484.816690	75.494704
34496.964437	23.283866
34509.118604	0.159363
34521.279195	0.000000
34533.446215	0.000000
34545.619669	0.000000
34557.799561	0.000000
35313.130015	0.000000
35325.718095	0.000000
35338.312906	0.000000
35350.914455	0.000000
35363.522745	21.571703
35376.137781	42.413838
35388.759569	50.460744
35401.388113	28.826717
35414.023418	6.749102
35426.665489	0.044646
35439.314331	0.000000
35451.969947	0.000000
35464.632344	0.000000
35477.301527	0.000000
36145.570567	0.000000
36158.606408	0.000000
36171.649303	0.000000
36184.699256	0.000000
36197.756273	19.734441
36210.820358	53.927042
36223.891517	84.052161
36236.969755	89.279290
36250.055076	69.663779
36263.147487	27.867793
36276.246991	0.182009
36289.353595	0.000000
36302.467304	0.000000
36315.588121	0.000000
36328.716054	0.000000
36420.811223	0.000000
36433.996259	0.000000
36447.188455	0.000000
36460.387818	0.000000
36473.594352	23.515980
36486.808062	38.764086
36500.028955	47.266051
36513.257035	39.197295
36526.492307	35.420882
36539.734777	34.784717
36552.984449	39.427928
36566.241329	42.192913
36579.505423	51.813892
36592.776735	44.067238
36606.055271	29.035758
36619.341035	19.023146
36632.634034	0.123757
36645.934272	0.000000
36659.241755	0.000000
36672.556488	0.000000
36685.878476	0.000000
38596.332811	0.000000
38610.716796	0.000000
38625.108823	0.000000
38639.508899	0.000000
38653.917030	18.438122
38668.333220	35.720661
38682.757477	44.532678
38697.189806	38.608407
38711.630214	22.895296
38726.078706	0.140059
38740.535289	0.000000
38754.999968	0.000000
38769.472750	0.000000
38783.953640	0.000000
39281.172129	0.000000
39295.940678	0.000000
39310.717558	0.000000
39325.502774	0.000000
39340.296333	19.231859
39355.098242	34.074482
39369.908505	42.287180
39384.727131	39.488352
39399.554124	28.172271
39414.389492	0.169270
39429.233240	0.000000
39444.085376	0.000000
39458.945904	11.009962
39473.814832	26.789159
39488.692166	47.670938
39503.577913	55.068268
39518.472077	35.844270
39533.374667	16.315119
39548.285688	0.097200
39563.205147	0.000000
39578.133050	0.000000
39593.069403	0.000000
39608.014213	0.000000
39863.376081	0.000000
39878.474210	0.000000
39893.580919	0.000000
39908.696214	0.000000
39923.820100	9.054033
39938.952586	29.778964
39954.093676	51.904694
39969.243378	48.964227
39984.401699	27.742666
39999.568644	11.721894
40014.744221	0.068854
40029.928435	0.000000
40045.121294	0.000000
40060.322804	0.000000
40075.532971	0.000000
40412.360390	0.000000
40427.771509	0.000000
40443.191445	0.000000
40458.620204	0.000000